%OpenBCI Raw EXG Data
%Number of channels = 8
%Sample Rate = 250 Hz
%Board = OpenBCI_GUI$BoardCytonSerial
Sample Index, EXG Channel 0, EXG Channel 1, EXG Channel 2, EXG Channel 3, EXG Channel 4, EXG Channel 5, EXG Channel 6, EXG Channel 7, Accel Channel 0, Accel Channel 1, Accel Channel 2, Other, Other, Other, Other, Other, Other, Other, Analog Channel 0, Analog Channel 1, Analog Channel 2, Timestamp, Other, Timestamp (Formatted)
0.0, 0.0, 0.0, 0.0, 0.0, 0.0, 0.0, 0.0, 0.0, 0.032, -0.01, 1.008, 192.0, 1.0, 0.0, 255.0, 176.0, 31.0, 128.0, 0.0, 0.0, 0.0, 1.6896028784267612E9, 0.0, 2023-07-17 16:07:58.426
1.0, -177587.11309279362, -181822.18752171847, -179183.87701319184, -178912.6832977156, -181508.57019526605, -183174.06572986435, -185206.57690841876, 187500.0, 0.032, -0.01, 1.008, 192.0, 0.0, 0.0, 0.0, 0.0, 0.0, 0.0, 0.0, 0.0, 0.0, 1.6896028789131007E9, 0.0, 2023-07-17 16:07:58.913
2.0, -177531.07726944415, -181819.4606088949, -179207.793379759, -178936.7784782384, -181510.76066622266, -183151.93750285357, -185234.04720235436, 187500.0, 0.032, -0.01, 1.008, 192.0, 0.0, 0.0, 0.0, 0.0, 0.0, 0.0, 0.0, 0.0, 0.0, 1.689602878913249E9, 0.0, 2023-07-17 16:07:58.913
3.0, -177510.156036634, -181825.78615257578, -179228.24522593562, -178939.46068757304, -181528.37384085346, -183129.49635142044, -185209.50498694243, 187500.0, 0.032, -0.01, 1.008, 192.0, 0.0, 0.0, 0.0, 0.0, 0.0, 0.0, 0.0, 0.0, 0.0, 1.6896028789132984E9, 0.0, 2023-07-17 16:07:58.913
4.0, -177520.81781873916, -181837.5208184148, -179241.18688597524, -178901.14979757665, -181551.1055649645, -183115.99589776946, -185185.968600031, 187500.0, 0.032, -0.01, 1.008, 192.0, 0.0, 0.0, 0.0, 0.0, 0.0, 0.0, 0.0, 0.0, 0.0, 1.689602878913344E9, 0.0, 2023-07-17 16:07:58.913
5.0, -177560.33570293614, -181833.49750441284, -179213.26955715058, -178890.62212593821, -181549.0045009857, -183117.4264094146, -185179.3077801833, 187500.0, 0.032, -0.01, 1.008, 192.0, 0.0, 0.0, 0.0, 0.0, 0.0, 0.0, 0.0, 0.0, 0.0, 1.6896028789152198E9, 0.0, 2023-07-17 16:07:58.915
6.0, -177550.63504584256, -181831.50819915632, -179212.62135656137, -178907.0283063684, -181536.599282813, -183122.45555191702, -185201.83833859424, 187500.0, 0.032, -0.01, 1.008, 192.0, 0.0, 0.0, 0.0, 0.0, 0.0, 0.0, 0.0, 0.0, 0.0, 1.6896028789153457E9, 0.0, 2023-07-17 16:07:58.915
7.0, -177518.71675476036, -181837.09613527014, -179230.3015864255, -178927.971890923, -181547.43987887382, -183110.1620924666, -185184.24751570792, 187500.0, 0.032, -0.01, 1.008, 192.0, 0.0, 0.0, 0.0, 0.0, 0.0, 0.0, 0.0, 0.0, 0.0, 1.689602878915401E9, 0.0, 2023-07-17 16:07:58.915
8.0, -177524.46115308537, -181856.38569073507, -179242.32682494246, -178900.83687315427, -181567.3105796946, -183103.5683278523, -185159.63824506264, 187500.0, 0.034, -0.014, 1.006, 192.0, 1.0, 16.0, 255.0, 144.0, 31.0, 112.0, 0.0, 0.0, 0.0, 1.6896028789154487E9, 0.0, 2023-07-17 16:07:58.915
9.0, -177543.61659808358, -181857.50327795785, -179235.44248765023, -178899.07108534232, -181577.70414086632, -183096.34871439324, -185159.86176250718, 187500.0, 0.034, -0.014, 1.006, 192.0, 0.0, 0.0, 0.0, 0.0, 0.0, 0.0, 0.0, 0.0, 0.0, 1.6896028789154992E9, 0.0, 2023-07-17 16:07:58.915
10.0, -177513.3523360911, -181862.06303382674, -179251.06635702448, -178901.03803885437, -181580.94514381234, -183073.50523155992, -185163.7509660424, 187500.0, 0.034, -0.014, 1.006, 192.0, 0.0, 0.0, 0.0, 0.0, 0.0, 0.0, 0.0, 0.0, 0.0, 1.6896028789155476E9, 0.0, 2023-07-17 16:07:58.915
11.0, -177512.99470817982, -181864.36526350564, -179251.06635702448, -178866.1693175041, -181593.48447245176, -183060.98825466493, -185139.67813726404, 187500.0, 0.034, -0.014, 1.006, 192.0, 0.0, 0.0, 0.0, 0.0, 0.0, 0.0, 0.0, 0.0, 0.0, 1.689602878915594E9, 0.0, 2023-07-17 16:07:58.915
12.0, -177559.03930175773, -181863.94058036097, -179232.24618819312, -178877.00991356492, -181590.5563939281, -183077.19326939504, -185137.24179711842, 187500.0, 0.034, -0.014, 1.006, 192.0, 0.0, 0.0, 0.0, 0.0, 0.0, 0.0, 0.0, 0.0, 0.0, 1.6896028789156413E9, 0.0, 2023-07-17 16:07:58.915
13.0, -177570.23752572984, -181882.31371430322, -179252.1615925028, -178878.75334963243, -181595.29496375265, -183101.13198770667, -185134.73840173942, 187500.0, 0.034, -0.014, 1.006, 192.0, 0.0, 0.0, 0.0, 0.0, 0.0, 0.0, 0.0, 0.0, 0.0, 1.6896028789156878E9, 0.0, 2023-07-17 16:07:58.915
14.0, -177591.89636610704, -181900.2845168453, -179260.8564210959, -178868.471547183, -181589.39410321644, -183110.720886078, -185126.73647722442, 187500.0, 0.034, -0.014, 1.006, 192.0, 0.0, 0.0, 0.0, 0.0, 0.0, 0.0, 0.0, 0.0, 0.0, 1.6896028789157343E9, 0.0, 2023-07-17 16:07:58.915
15.0, -177573.67969437595, -181899.9939441674, -179265.88556359836, -178853.83115456477, -181582.08508277955, -183113.6713163461, -185106.7316659369, 187500.0, 0.034, -0.014, 1.006, 192.0, 0.0, 0.0, 0.0, 0.0, 0.0, 0.0, 0.0, 0.0, 0.0, 1.689602878916077E9, 0.0, 2023-07-17 16:07:58.916
16.0, -177568.18116523995, -181888.683961473, -179245.05373776602, -178811.7651714999, -181582.86739383548, -183089.24085965645, -185076.91443883354, 187500.0, 0.034, -0.014, 1.006, 192.0, 0.0, 0.0, 0.0, 0.0, 0.0, 0.0, 0.0, 0.0, 0.0, 1.6896028789161267E9, 0.0, 2023-07-17 16:07:58.916
17.0, -177591.18111028447, -181884.8841649156, -179227.68643232423, -178832.26172116539, -181580.11812926747, -183108.77628431038, -185103.42360775755, 187500.0, 0.034, -0.014, 1.006, 192.0, 0.0, 0.0, 0.0, 0.0, 0.0, 0.0, 0.0, 0.0, 0.0, 1.6896028789161737E9, 0.0, 2023-07-17 16:07:58.916
18.0, -177564.82840357168, -181890.91913591852, -179241.94684528673, -178850.701910341, -181586.82365260407, -183109.17861571058, -185130.6480325041, 187500.0, 0.042, -0.012, 1.002, 192.0, 1.0, 80.0, 255.0, 160.0, 31.0, 80.0, 0.0, 0.0, 0.0, 1.6896028789162204E9, 0.0, 2023-07-17 16:07:58.916
19.0, -177573.25501123132, -181873.6188857101, -179215.057696707, -178829.62421531967, -181579.84990833403, -183093.68885680306, -185112.02902937282, 187500.0, 0.042, -0.012, 1.002, 192.0, 0.0, 0.0, 0.0, 0.0, 0.0, 0.0, 0.0, 0.0, 0.0, 1.6896028789162703E9, 0.0, 2023-07-17 16:07:58.916
20.0, -177572.0703687752, -181865.03581583928, -179193.35415284088, -178844.04109049335, -181555.6653208334, -183121.94146179457, -185130.58097727073, 187500.0, 0.042, -0.012, 1.002, 192.0, 0.0, 0.0, 0.0, 0.0, 0.0, 0.0, 0.0, 0.0, 0.0, 1.6896028789163167E9, 0.0, 2023-07-17 16:07:58.916
21.0, -177533.22303691186, -181867.49450772937, -179219.57274908695, -178880.65324791113, -181554.2124574438, -183154.86558137723, -185175.32916967027, 187500.0, 0.042, -0.012, 1.002, 192.0, 0.0, 0.0, 0.0, 0.0, 0.0, 0.0, 0.0, 0.0, 0.0, 1.6896028789163632E9, 0.0, 2023-07-17 16:07:58.916
22.0, -177505.23865285382, -181873.9318101325, -179235.42013590576, -178896.09830332975, -181566.17064072736, -183138.7276218805, -185164.3544631427, 187500.0, 0.042, -0.012, 1.002, 192.0, 0.0, 0.0, 0.0, 0.0, 0.0, 0.0, 0.0, 0.0, 0.0, 1.6896028789164095E9, 0.0, 2023-07-17 16:07:58.916
23.0, -177512.65943201297, -181896.77529296582, -179251.3569297024, -178866.459890182, -181584.83434734755, -183124.89189206267, -185138.13586689663, 187500.0, 0.042, -0.012, 1.002, 192.0, 0.0, 0.0, 0.0, 0.0, 0.0, 0.0, 0.0, 0.0, 0.0, 1.689602878916462E9, 0.0, 2023-07-17 16:07:58.916
24.0, -177542.901342261, -181887.25344982787, -179227.6640805798, -178846.8574102947, -181584.27555373617, -183122.58966238378, -185129.37398307014, 187500.0, 0.042, -0.012, 1.002, 192.0, 0.0, 0.0, 0.0, 0.0, 0.0, 0.0, 0.0, 0.0, 0.0, 1.6896028789165087E9, 0.0, 2023-07-17 16:07:58.916
25.0, -177544.62242658407, -181882.49252825888, -179217.94107174172, -178865.968151804, -181567.77996632815, -183132.89381657768, -185152.3515763702, 187500.0, 0.042, -0.012, 1.002, 192.0, 0.0, 0.0, 0.0, 0.0, 0.0, 0.0, 0.0, 0.0, 0.0, 1.6896028789165554E9, 0.0, 2023-07-17 16:07:58.916
26.0, -177512.99470817982, -181874.28943804378, -179230.4580486367, -178879.49095719945, -181563.73430058174, -183112.12904597868, -185141.26511112036, 187500.0, 0.042, -0.012, 1.002, 192.0, 0.0, 0.0, 0.0, 0.0, 0.0, 0.0, 0.0, 0.0, 0.0, 1.6896028789166017E9, 0.0, 2023-07-17 16:07:58.916
27.0, -177491.402923036, -181883.5877637372, -179244.38318543235, -178887.85050962574, -181575.82659433206, -183091.72190329098, -185108.698619449, 187500.0, 0.042, -0.012, 1.002, 192.0, 0.0, 0.0, 0.0, 0.0, 0.0, 0.0, 0.0, 0.0, 0.0, 1.689602878916648E9, 0.0, 2023-07-17 16:07:58.916
28.0, -177506.87033019905, -181898.47402554442, -179250.01582503508, -178844.62223584918, -181587.11422528198, -183075.53924030534, -185082.86000285865, 187500.0, 0.04, -0.012, 1.004, 192.0, 1.0, 64.0, 255.0, 160.0, 31.0, 96.0, 0.0, 0.0, 0.0, 1.6896028789166944E9, 0.0, 2023-07-17 16:07:58.916
29.0, -177551.57381910968, -181900.01629591183, -179230.63686259234, -178844.0634422378, -181596.0549230641, -183088.88323174516, -185091.6889419185, 187500.0, 0.04, -0.012, 1.004, 192.0, 0.0, 0.0, 0.0, 0.0, 0.0, 0.0, 0.0, 0.0, 0.0, 1.6896028789167438E9, 0.0, 2023-07-17 16:07:58.916
30.0, -177531.25608339978, -181886.64995272757, -179224.28896716703, -178860.00023603442, -181573.88199256445, -183093.33122889177, -185128.61402375865, 187500.0, 0.04, -0.012, 1.004, 192.0, 0.0, 0.0, 0.0, 0.0, 0.0, 0.0, 0.0, 0.0, 0.0, 1.689602878916917E9, 0.0, 2023-07-17 16:07:58.916
31.0, -177486.1949665779, -181883.677170715, -179245.09844125493, -178892.54437596136, -181574.82076583157, -183078.82494674026, -185158.07362295076, 187500.0, 0.04, -0.012, 1.004, 192.0, 0.0, 0.0, 0.0, 0.0, 0.0, 0.0, 0.0, 0.0, 0.0, 1.6896028789169643E9, 0.0, 2023-07-17 16:07:58.916
32.0, -177458.97054183134, -181881.5761067362, -179263.7174443862, -178914.31497506084, -181584.856699092, -183066.2185628675, -185138.35938434117, 187500.0, 0.04, -0.012, 1.004, 192.0, 0.0, 0.0, 0.0, 0.0, 0.0, 0.0, 0.0, 0.0, 0.0, 1.6896028789170115E9, 0.0, 2023-07-17 16:07:58.917
33.0, -177475.01909435025, -181893.7354557199, -179279.9671626052, -178922.2721960869, -181612.84108315007, -183069.30310360232, -185123.4507707895, 187500.0, 0.04, -0.012, 1.004, 192.0, 0.0, 0.0, 0.0, 0.0, 0.0, 0.0, 0.0, 0.0, 0.0, 1.6896028789170713E9, 0.0, 2023-07-17 16:07:58.917
34.0, -177516.92861520394, -181885.59942073817, -179248.47355466767, -178915.94665240607, -181607.74488541423, -183072.43234782605, -185114.934756152, 187500.0, 0.04, -0.012, 1.004, 192.0, 0.0, 0.0, 0.0, 0.0, 0.0, 0.0, 0.0, 0.0, 0.0, 1.6896028789171233E9, 0.0, 2023-07-17 16:07:58.917
35.0, -177528.41741185397, -181895.94827842098, -179255.78257510456, -178913.55501574936, -181614.5621674731, -183088.41384511162, -185114.21950032946, 187500.0, 0.04, -0.012, 1.004, 192.0, 0.0, 0.0, 0.0, 0.0, 0.0, 0.0, 0.0, 0.0, 0.0, 1.68960287891717E9, 0.0, 2023-07-17 16:07:58.917
36.0, -177538.58745558115, -181896.30590633224, -179250.44050817974, -178888.90104161514, -181628.5767112466, -183079.9201822186, -185093.7900058973, 187500.0, 0.04, -0.012, 1.004, 192.0, 0.0, 0.0, 0.0, 0.0, 0.0, 0.0, 0.0, 0.0, 0.0, 1.6896028789172168E9, 0.0, 2023-07-17 16:07:58.917
37.0, -177552.66905458798, -181870.06495834174, -179222.74669679962, -178878.1275007877, -181599.63120217697, -183084.77051076537, -185097.90272687707, 187500.0, 0.034, -0.006, 1.004, 192.0, 1.0, 16.0, 255.0, 208.0, 31.0, 96.0, 0.0, 0.0, 0.0, 1.689602878917263E9, 0.0, 2023-07-17 16:07:58.917
38.0, -177526.49516183083, -181870.9813798644, -179233.2073132047, -178902.28973654387, -181586.01898980368, -183129.20577874253, -185143.52263731035, 187500.0, 0.034, -0.006, 1.004, 192.0, 0.0, 0.0, 0.0, 0.0, 0.0, 0.0, 0.0, 0.0, 0.0, 1.6896028789173148E9, 0.0, 2023-07-17 16:07:58.917
39.0, -177488.4971962568, -181868.85796414115, -179247.82535407846, -178929.96119617953, -181574.59724838703, -183121.71794435, -185194.5069664129, 187500.0, 0.034, -0.006, 1.004, 192.0, 0.0, 0.0, 0.0, 0.0, 0.0, 0.0, 0.0, 0.0, 0.0, 1.6896028789173565E9, 0.0, 2023-07-17 16:07:58.917
40.0, -177437.46816366533, -181857.92796110248, -179253.97208380367, -178948.9378272221, -181559.24159994622, -183091.34192363525, -185241.69149895807, 187500.0, 0.034, -0.006, 1.004, 192.0, 0.0, 0.0, 0.0, 0.0, 0.0, 0.0, 0.0, 0.0, 0.0, 1.6896028789173973E9, 0.0, 2023-07-17 16:07:58.917
41.0, -177395.11160792253, -181844.94159757395, -179253.16742100328, -178958.66083606015, -181535.66050954588, -183058.93189417504, -185278.72833952052, 187500.0, 0.034, -0.006, 1.004, 192.0, 0.0, 0.0, 0.0, 0.0, 0.0, 0.0, 0.0, 0.0, 0.0, 1.689602878917437E9, 0.0, 2023-07-17 16:07:58.917
42.0, -177370.65879948842, -181833.40809743502, -179236.87299929536, -178960.9407139946, -181497.57313699403, -183061.43528955404, -185295.24627867297, 187500.0, 0.034, -0.006, 1.004, 192.0, 0.0, 0.0, 0.0, 0.0, 0.0, 0.0, 0.0, 0.0, 0.0, 1.6896028789174783E9, 0.0, 2023-07-17 16:07:58.917
43.0, -177417.55275935566, -181830.25650146682, -179225.58536834543, -178966.86392627525, -181456.80355510756, -183107.05519998734, -185301.482415376, 187500.0, 0.034, -0.006, 1.004, 192.0, 0.0, 0.0, 0.0, 0.0, 0.0, 0.0, 0.0, 0.0, 0.0, 1.6896028789175208E9, 0.0, 2023-07-17 16:07:58.917
44.0, -177497.01321089428, -181840.6277108941, -179225.3618509009, -178981.23609796, -181423.83473203596, -183146.75189813995, -185313.75352308198, 187500.0, 0.034, -0.006, 1.004, 192.0, 0.0, 0.0, 0.0, 0.0, 0.0, 0.0, 0.0, 0.0, 0.0, 1.6896028789175653E9, 0.0, 2023-07-17 16:07:58.917
45.0, -177536.73226079135, -181823.0592397522, -179200.3502488554, -178961.05247271687, -181399.1584061573, -183148.76355514093, -185306.489206134, 187500.0, 0.034, -0.006, 1.004, 192.0, 0.0, 0.0, 0.0, 0.0, 0.0, 0.0, 0.0, 0.0, 0.0, 1.6896028789176586E9, 0.0, 2023-07-17 16:07:58.917
46.0, -177571.2210024859, -181804.64140232105, -179189.3978940723, -178921.73575422, -181438.25160720965, -183153.30095926535, -185293.65930481665, 187500.0, 0.034, -0.006, 1.004, 192.0, 0.0, 0.0, 0.0, 0.0, 0.0, 0.0, 0.0, 0.0, 0.0, 1.6896028789177017E9, 0.0, 2023-07-17 16:07:58.917
47.0, -177609.12956108208, -181795.8124632612, -179181.82065270195, -178884.0283613239, -181486.26315429964, -183158.12893606772, -185281.79052851087, 187500.0, 0.03, -0.004, 1.0, 192.0, 0.0, 240.0, 255.0, 224.0, 31.0, 64.0, 0.0, 0.0, 0.0, 1.6896028789177437E9, 0.0, 2023-07-17 16:07:58.917
48.0, -177645.47349756642, -181800.72984704137, -179150.8858383758, -178882.10611130073, -181511.92295693434, -183166.71200593855, -185279.488298832, 187500.0, 0.03, -0.004, 1.0, 192.0, 0.0, 0.0, 0.0, 0.0, 0.0, 0.0, 0.0, 0.0, 0.0, 1.6896028789177878E9, 0.0, 2023-07-17 16:07:58.917
49.0, -177641.24901786435, -181808.7541233008, -179160.05005360246, -178888.18578579256, -181515.56629128056, -183179.2289828335, -185271.86635397273, 187500.0, 0.03, -0.004, 1.0, 192.0, 0.0, 0.0, 0.0, 0.0, 0.0, 0.0, 0.0, 0.0, 0.0, 1.689602878917827E9, 0.0, 2023-07-17 16:07:58.917
50.0, -177623.8817124226, -181818.43242864998, -179170.80124268547, -178859.19557323403, -181512.36999182345, -183167.80724141686, -185245.60305423776, 187500.0, 0.03, -0.004, 1.0, 192.0, 0.0, 0.0, 0.0, 0.0, 0.0, 0.0, 0.0, 0.0, 0.0, 1.6896028789178705E9, 0.0, 2023-07-17 16:07:58.917
51.0, -177609.04015410427, -181812.4198093915, -179162.50874549255, -178866.79516634883, -181492.45458751376, -183192.17064287313, -185252.24152234098, 187500.0, 0.03, -0.004, 1.0, 192.0, 0.0, 0.0, 0.0, 0.0, 0.0, 0.0, 0.0, 0.0, 0.0, 1.6896028789179144E9, 0.0, 2023-07-17 16:07:58.917
52.0, -177543.393080639, -181807.34596340012, -179173.52815550903, -178887.8728613702, -181486.6431339554, -183199.5914220323, -185275.84496448576, 187500.0, 0.03, -0.004, 1.0, 192.0, 0.0, 0.0, 0.0, 0.0, 0.0, 0.0, 0.0, 0.0, 0.0, 1.6896028789179552E9, 0.0, 2023-07-17 16:07:58.917
53.0, -177511.02775466774, -181801.400399375, -179187.9450306827, -178895.85243414075, -181502.98225915222, -183175.54094499839, -185247.21237983851, 187500.0, 0.03, -0.004, 1.0, 192.0, 0.0, 0.0, 0.0, 0.0, 0.0, 0.0, 0.0, 0.0, 0.0, 1.6896028789179957E9, 0.0, 2023-07-17 16:07:58.917
54.0, -177518.78380999374, -181775.94176244043, -179160.45238500266, -178867.4657186825, -181504.74804696417, -183154.12797381022, -185217.01517307942, 187500.0, 0.03, -0.004, 1.0, 192.0, 0.0, 0.0, 0.0, 0.0, 0.0, 0.0, 0.0, 0.0, 0.0, 1.6896028789180493E9, 0.0, 2023-07-17 16:07:58.918
55.0, -177537.08988870264, -181784.07779742216, -179156.45142274516, -178888.8786898707, -181505.37389580894, -183168.50014549497, -185240.28333905738, 187500.0, 0.03, -0.004, 1.0, 192.0, 0.0, 0.0, 0.0, 0.0, 0.0, 0.0, 0.0, 0.0, 0.0, 1.6896028789180932E9, 0.0, 2023-07-17 16:07:58.918
56.0, -177511.22892036784, -181796.59477431714, -179181.39596955728, -178892.29850677235, -181517.846169215, -183156.83253488928, -185246.0724408713, 187500.0, 0.03, -0.004, 1.0, 192.0, 0.0, 0.0, 0.0, 0.0, 0.0, 0.0, 0.0, 0.0, 0.0, 1.6896028789181364E9, 0.0, 2023-07-17 16:07:58.918
57.0, -177535.72643229086, -181823.99801301933, -179200.9984494446, -178883.55897469033, -181523.81408498457, -183161.41464250264, -185241.73620244698, 187500.0, 0.028, -0.01, 1.012, 192.0, 0.0, 224.0, 255.0, 176.0, 31.0, 160.0, 0.0, 0.0, 0.0, 1.6896028789181795E9, 0.0, 2023-07-17 16:07:58.918
58.0, -177523.38826935153, -181812.37510590258, -179194.47174006366, -178883.2236985235, -181505.35154406447, -183154.57500869932, -185245.13366760418, 187500.0, 0.028, -0.01, 1.012, 192.0, 0.0, 0.0, 0.0, 0.0, 0.0, 0.0, 0.0, 0.0, 0.0, 1.6896028789182246E9, 0.0, 2023-07-17 16:07:58.918
59.0, -177510.11133314506, -181824.8250275642, -179209.4027053598, -178863.73297735848, -181515.09690464698, -183132.6702991331, -185226.35820226173, 187500.0, 0.028, -0.01, 1.012, 192.0, 0.0, 0.0, 0.0, 0.0, 0.0, 0.0, 0.0, 0.0, 0.0, 1.689602878918269E9, 0.0, 2023-07-17 16:07:58.918
60.0, -177526.29399613073, -181830.50237065583, -179204.06063843498, -178850.74661382995, -181497.52843350513, -183129.89868282064, -185217.86453936872, 187500.0, 0.028, -0.01, 1.012, 192.0, 0.0, 0.0, 0.0, 0.0, 0.0, 0.0, 0.0, 0.0, 0.0, 1.6896028789184897E9, 0.0, 2023-07-17 16:07:58.918
61.0, -177492.4534550254, -181821.4722658959, -179203.3006791235, -178865.7669861039, -181483.35742752044, -183120.1756739826, -185248.3746705502, 187500.0, 0.028, -0.01, 1.012, 192.0, 0.0, 0.0, 0.0, 0.0, 0.0, 0.0, 0.0, 0.0, 0.0, 1.6896028789185352E9, 0.0, 2023-07-17 16:07:58.918
62.0, -177466.79365239068, -181829.3177281997, -179234.77193531656, -178905.15075983416, -181500.27769807313, -183107.3234209208, -185263.3726910797, 187500.0, 0.028, -0.01, 1.012, 192.0, 0.0, 0.0, 0.0, 0.0, 0.0, 0.0, 0.0, 0.0, 0.0, 1.6896028789185805E9, 0.0, 2023-07-17 16:07:58.918
63.0, -177448.12994577052, -181834.4139259355, -179249.8593628239, -178892.16439630563, -181516.10273314748, -183089.82200501228, -185232.10260058675, 187500.0, 0.028, -0.01, 1.012, 192.0, 0.0, 0.0, 0.0, 0.0, 0.0, 0.0, 0.0, 0.0, 0.0, 1.6896028789186232E9, 0.0, 2023-07-17 16:07:58.918
64.0, -177481.56815547566, -181845.99212956335, -179253.32388321447, -178871.93606757358, -181543.64008231641, -183086.73746427745, -185217.10458005723, 187500.0, 0.028, -0.01, 1.012, 192.0, 0.0, 0.0, 0.0, 0.0, 0.0, 0.0, 0.0, 0.0, 0.0, 1.6896028789186668E9, 0.0, 2023-07-17 16:07:58.918
65.0, -177488.72071370133, -181853.50231570035, -179251.13341225786, -178892.43261723907, -181558.7498615682, -183076.47801357246, -185231.61086220873, 187500.0, 0.028, -0.01, 1.012, 192.0, 0.0, 0.0, 0.0, 0.0, 0.0, 0.0, 0.0, 0.0, 0.0, 1.6896028789187336E9, 0.0, 2023-07-17 16:07:58.918
66.0, -177491.2464608248, -181876.90459214506, -179273.59691543542, -178888.58811719276, -181577.23475423275, -183072.67821701505, -185228.48161798497, 187500.0, 0.028, -0.01, 1.012, 192.0, 0.0, 0.0, 0.0, 0.0, 0.0, 0.0, 0.0, 0.0, 0.0, 1.6896028789187891E9, 0.0, 2023-07-17 16:07:58.918
67.0, -177508.59141452212, -181867.673321685, -179259.49296468415, -178868.9185820721, -181545.1600009394, -183073.43817632654, -185216.7693038904, 187500.0, 0.026000000000000002, -0.01, 1.01, 192.0, 0.0, 208.0, 255.0, 176.0, 31.0, 144.0, 0.0, 0.0, 0.0, 1.6896028789188392E9, 0.0, 2023-07-17 16:07:58.918
68.0, -177494.8003881932, -181853.3235017447, -179255.55905766, -178871.33257047329, -181540.28732064812, -183064.8551064557, -185219.74208590295, 187500.0, 0.026000000000000002, -0.01, 1.01, 192.0, 0.0, 0.0, 0.0, 0.0, 0.0, 0.0, 0.0, 0.0, 0.0, 1.6896028789188879E9, 0.0, 2023-07-17 16:07:58.918
69.0, -177520.52724606125, -181852.02710056628, -179253.59210414795, -178873.65715189662, -181563.24256220373, -183072.5664582928, -185219.76443764742, 187500.0, 0.026000000000000002, -0.01, 1.01, 192.0, 0.0, 0.0, 0.0, 0.0, 0.0, 0.0, 0.0, 0.0, 0.0, 1.6896028789189277E9, 0.0, 2023-07-17 16:07:58.918
70.0, -177550.99267375382, -181849.5237051873, -179247.40067093383, -178885.19065203556, -181567.1541174834, -183096.92985974907, -185224.14537956065, 187500.0, 0.026000000000000002, -0.01, 1.01, 192.0, 0.0, 0.0, 0.0, 0.0, 0.0, 0.0, 0.0, 0.0, 0.0, 1.6896028789189672E9, 0.0, 2023-07-17 16:07:58.918
71.0, -177562.63793261503, -181827.73075434339, -179223.2607869221, -178868.3150849718, -181569.92573379586, -183095.00760972593, -185207.94036483055, 187500.0, 0.026000000000000002, -0.01, 1.01, 192.0, 0.0, 0.0, 0.0, 0.0, 0.0, 0.0, 0.0, 0.0, 0.0, 1.6896028789190075E9, 0.0, 2023-07-17 16:07:58.919
72.0, -177571.35511295262, -181824.98148977538, -179209.71562978218, -178872.9642478185, -181568.18229772834, -183108.15043546565, -185202.19596650553, 187500.0, 0.026000000000000002, -0.01, 1.01, 192.0, 0.0, 0.0, 0.0, 0.0, 0.0, 0.0, 0.0, 0.0, 0.0, 1.6896028789190733E9, 0.0, 2023-07-17 16:07:58.919
73.0, -177570.6622088745, -181841.90176032804, -179230.36864165886, -178858.1226895002, -181563.84605930402, -183104.48474937497, -185183.53225988537, 187500.0, 0.026000000000000002, -0.01, 1.01, 192.0, 0.0, 0.0, 0.0, 0.0, 0.0, 0.0, 0.0, 0.0, 0.0, 1.6896028789191153E9, 0.0, 2023-07-17 16:07:58.919
74.0, -177584.3191247367, -181850.70834764343, -179233.43083064925, -178875.69116064205, -181549.2503701747, -183119.48276990448, -185198.2620594814, 187500.0, 0.026000000000000002, -0.01, 1.01, 192.0, 0.0, 0.0, 0.0, 0.0, 0.0, 0.0, 0.0, 0.0, 0.0, 1.6896028789191587E9, 0.0, 2023-07-17 16:07:58.919
75.0, -177555.3065604337, -181832.8716555681, -179244.31613019897, -178872.94189607404, -181548.62452132994, -183099.09797896125, -185194.462262924, 187500.0, 0.026000000000000002, -0.01, 1.01, 192.0, 0.0, 0.0, 0.0, 0.0, 0.0, 0.0, 0.0, 0.0, 0.0, 1.689602878919295E9, 0.0, 2023-07-17 16:07:58.919
76.0, -177564.22490647138, -181812.5539198582, -179249.41232793478, -178852.37829117518, -181535.7499165237, -183087.09509218874, -185174.5021551254, 187500.0, 0.026000000000000002, -0.01, 1.01, 192.0, 0.0, 0.0, 0.0, 0.0, 0.0, 0.0, 0.0, 0.0, 0.0, 1.6896028789193397E9, 0.0, 2023-07-17 16:07:58.919
77.0, -177557.49703139032, -181811.79396054673, -179247.40067093383, -178867.64453263814, -181515.07455290254, -183124.0201740289, -185199.6702193821, 187500.0, 0.028, -0.006, 1.008, 192.0, 0.0, 224.0, 255.0, 208.0, 31.0, 128.0, 0.0, 0.0, 0.0, 1.6896028789193835E9, 0.0, 2023-07-17 16:07:58.919
78.0, -177525.10935367458, -181817.33719317167, -179266.69022639876, -178894.19840505105, -181527.70328851978, -183143.04150856036, -185234.29307154336, 187500.0, 0.028, -0.006, 1.008, 192.0, 0.0, 0.0, 0.0, 0.0, 0.0, 0.0, 0.0, 0.0, 0.0, 1.6896028789194305E9, 0.0, 2023-07-17 16:07:58.919
79.0, -177533.82653401216, -181806.38483838856, -179290.98657262165, -178885.0788933133, -181546.81403002908, -183135.86659859022, -185225.28531852787, 187500.0, 0.028, -0.006, 1.008, 192.0, 0.0, 0.0, 0.0, 0.0, 0.0, 0.0, 0.0, 0.0, 0.0, 1.689602878919472E9, 0.0, 2023-07-17 16:07:58.919
80.0, -177534.83236251265, -181790.00100970283, -179275.2732962696, -178879.1333292882, -181526.51864606366, -183132.04445028838, -185228.5710249628, 187500.0, 0.028, -0.006, 1.008, 192.0, 0.0, 0.0, 0.0, 0.0, 0.0, 0.0, 0.0, 0.0, 0.0, 1.6896028789195168E9, 0.0, 2023-07-17 16:07:58.919
81.0, -177503.38345806403, -181784.59188754464, -179279.9671626052, -178896.72415217452, -181522.4953320617, -183111.79376981186, -185230.33681277477, 187500.0, 0.028, -0.006, 1.008, 192.0, 0.0, 0.0, 0.0, 0.0, 0.0, 0.0, 0.0, 0.0, 0.0, 1.6896028789195616E9, 0.0, 2023-07-17 16:07:58.919
82.0, -177489.145396846, -181795.8124632612, -179290.69599994374, -178882.30727700083, -181542.12016369347, -183093.91237424762, -185202.79946360583, 187500.0, 0.028, -0.006, 1.008, 192.0, 0.0, 0.0, 0.0, 0.0, 0.0, 0.0, 0.0, 0.0, 0.0, 1.689602878919606E9, 0.0, 2023-07-17 16:07:58.919
83.0, -177507.51853078825, -181800.8639575081, -179281.4647294837, -178843.99638700444, -181556.1570592114, -183085.39635961014, -185172.78107080236, 187500.0, 0.028, -0.006, 1.008, 192.0, 0.0, 0.0, 0.0, 0.0, 0.0, 0.0, 0.0, 0.0, 0.0, 1.6896028789196472E9, 0.0, 2023-07-17 16:07:58.919
84.0, -177541.11320270458, -181796.28184989476, -179252.809793092, -178852.1100702417, -181544.5565038391, -183098.9191650056, -185185.2086407195, 187500.0, 0.028, -0.006, 1.008, 192.0, 0.0, 0.0, 0.0, 0.0, 0.0, 0.0, 0.0, 0.0, 0.0, 1.6896028789196887E9, 0.0, 2023-07-17 16:07:58.919
85.0, -177514.73814424733, -181811.413980891, -179257.12367977187, -178864.6717506256, -181545.8976085064, -183095.02996147037, -185201.1230827717, 187500.0, 0.028, -0.006, 1.008, 192.0, 0.0, 0.0, 0.0, 0.0, 0.0, 0.0, 0.0, 0.0, 0.0, 1.689602878919731E9, 0.0, 2023-07-17 16:07:58.919
86.0, -177522.56125480667, -181833.2292834794, -179260.87877284037, -178826.07028795127, -181561.32031218056, -183081.03776944135, -185174.27863768087, 187500.0, 0.028, -0.006, 1.008, 192.0, 0.0, 0.0, 0.0, 0.0, 0.0, 0.0, 0.0, 0.0, 0.0, 1.6896028789197707E9, 0.0, 2023-07-17 16:07:58.919
87.0, -177560.58157212517, -181834.14570500204, -179240.96336853068, -178817.44251459153, -181570.68569310734, -183090.40315036813, -185174.39039640315, 187500.0, 0.03, -0.008, 1.004, 192.0, 0.0, 240.0, 255.0, 192.0, 31.0, 96.0, 0.0, 0.0, 0.0, 1.6896028789198203E9, 0.0, 2023-07-17 16:07:58.919
88.0, -177549.4951068753, -181824.7132688419, -179231.41917364826, -178834.11691595518, -181553.51955336568, -183096.79574928235, -185194.3728559462, 187500.0, 0.03, -0.008, 1.004, 192.0, 0.0, 0.0, 0.0, 0.0, 0.0, 0.0, 0.0, 0.0, 0.0, 1.6896028789198651E9, 0.0, 2023-07-17 16:07:58.919
89.0, -177517.75562974878, -181825.2720624533, -179248.85353432343, -178853.20530572, -181564.7624808267, -183081.14952816363, -185183.42050116308, 187500.0, 0.03, -0.008, 1.004, 192.0, 0.0, 0.0, 0.0, 0.0, 0.0, 0.0, 0.0, 0.0, 0.0, 1.689602878919962E9, 0.0, 2023-07-17 16:07:58.919
90.0, -177532.150153178, -181857.30211225775, -179276.63675268137, -178845.27043643838, -181593.48447245176, -183081.95419096402, -185166.8578585217, 187500.0, 0.03, -0.008, 1.004, 192.0, 0.0, 0.0, 0.0, 0.0, 0.0, 0.0, 0.0, 0.0, 0.0, 1.6896028789200103E9, 0.0, 2023-07-17 16:07:58.920
91.0, -177560.33570293614, -181850.41777496552, -179253.03331053656, -178818.04601169183, -181585.81782410358, -183076.63447578365, -185146.18249490054, 187500.0, 0.03, -0.008, 1.004, 192.0, 0.0, 0.0, 0.0, 0.0, 0.0, 0.0, 0.0, 0.0, 0.0, 1.68960287892006E9, 0.0, 2023-07-17 16:07:58.920
92.0, -177597.32784000968, -181846.46151619693, -179223.79722878902, -178835.03333747786, -181550.2114951863, -183088.99499046744, -185154.29617813783, 187500.0, 0.03, -0.008, 1.004, 192.0, 0.0, 0.0, 0.0, 0.0, 0.0, 0.0, 0.0, 0.0, 0.0, 1.689602878920112E9, 0.0, 2023-07-17 16:07:58.920
93.0, -177578.8205956007, -181842.41585045052, -179227.1052869684, -178858.4132621781, -181543.5953788275, -183101.10963596223, -185188.04731226532, 187500.0, 0.03, -0.008, 1.004, 192.0, 0.0, 0.0, 0.0, 0.0, 0.0, 0.0, 0.0, 0.0, 0.0, 1.6896028789201653E9, 0.0, 2023-07-17 16:07:58.920
94.0, -177549.4504033864, -181842.63936789506, -179237.45414465122, -178865.34230295924, -181555.1512307109, -183085.12813867666, -185169.51771611188, 187500.0, 0.03, -0.008, 1.004, 192.0, 0.0, 0.0, 0.0, 0.0, 0.0, 0.0, 0.0, 0.0, 0.0, 1.6896028789202108E9, 0.0, 2023-07-17 16:07:58.920
95.0, -177557.5193831348, -181865.39344375057, -179256.050796038, -178838.09552646824, -181578.32998971106, -183077.88617347315, -185151.41280310307, 187500.0, 0.03, -0.008, 1.004, 192.0, 0.0, 0.0, 0.0, 0.0, 0.0, 0.0, 0.0, 0.0, 0.0, 1.6896028789202564E9, 0.0, 2023-07-17 16:07:58.920
96.0, -177584.92262183697, -181858.5761616917, -179229.51927536956, -178820.43764834854, -181578.24058273324, -183078.2661531289, -185140.1475238976, 187500.0, 0.03, -0.008, 1.004, 192.0, 0.0, 0.0, 0.0, 0.0, 0.0, 0.0, 0.0, 0.0, 0.0, 1.6896028789203007E9, 0.0, 2023-07-17 16:07:58.920
97.0, -177594.39976148604, -181861.59364719316, -179225.63007183434, -178846.07509923878, -181564.8071843156, -183094.42646437007, -185164.3544631427, 187500.0, 0.036000000000000004, -0.002, 1.002, 192.0, 1.0, 32.0, 255.0, 240.0, 31.0, 80.0, 0.0, 0.0, 0.0, 1.6896028789203467E9, 0.0, 2023-07-17 16:07:58.920
98.0, -177587.2695550048, -181857.36916749112, -179238.68349059625, -178856.33454994377, -181585.2590304922, -183095.34288589275, -185170.27767542336, 187500.0, 0.036000000000000004, -0.002, 1.002, 192.0, 0.0, 0.0, 0.0, 0.0, 0.0, 0.0, 0.0, 0.0, 0.0, 1.6896028789203973E9, 0.0, 2023-07-17 16:07:58.920
99.0, -177578.2618019893, -181860.09608031466, -179229.49692362512, -178853.5629336313, -181595.2055567748, -183082.20006015303, -185179.08426273876, 187500.0, 0.036000000000000004, -0.002, 1.002, 192.0, 0.0, 0.0, 0.0, 0.0, 0.0, 0.0, 0.0, 0.0, 0.0, 1.689602878920446E9, 0.0, 2023-07-17 16:07:58.920
100.0, -177578.0606362892, -181880.34676079117, -179238.54938012952, -178843.0129102484, -181596.8595858645, -183076.23214438345, -185196.58567864724, 187500.0, 0.036000000000000004, -0.002, 1.002, 192.0, 0.0, 0.0, 0.0, 0.0, 0.0, 0.0, 0.0, 0.0, 0.0, 1.689602878920492E9, 0.0, 2023-07-17 16:07:58.920
101.0, -177566.8624123171, -181872.09896708716, -179236.31420568397, -178829.24423566394, -181586.17545201487, -183080.83660374125, -185183.6663703521, 187500.0, 0.036000000000000004, -0.002, 1.002, 192.0, 0.0, 0.0, 0.0, 0.0, 0.0, 0.0, 0.0, 0.0, 0.0, 1.689602878920543E9, 0.0, 2023-07-17 16:07:58.920
102.0, -177569.43286292945, -181890.89678417408, -179249.12175525687, -178818.71656402547, -181583.33678046905, -183083.07177818677, -185173.74219581392, 187500.0, 0.036000000000000004, -0.002, 1.002, 192.0, 0.0, 0.0, 0.0, 0.0, 0.0, 0.0, 0.0, 0.0, 0.0, 1.6896028789205987E9, 0.0, 2023-07-17 16:07:58.920
103.0, -177563.24142971533, -181882.91721140352, -179243.57852263196, -178804.456151063, -181573.77023384217, -183090.38079862366, -185154.76556477137, 187500.0, 0.036000000000000004, -0.002, 1.002, 192.0, 0.0, 0.0, 0.0, 0.0, 0.0, 0.0, 0.0, 0.0, 0.0, 1.6896028789206488E9, 0.0, 2023-07-17 16:07:58.920
104.0, -177573.4114734425, -181909.04640067177, -179268.52306944408, -178807.87596796465, -181577.92765831086, -183083.07177818677, -185151.5022100809, 187500.0, 0.036000000000000004, -0.002, 1.002, 192.0, 0.0, 0.0, 0.0, 0.0, 0.0, 0.0, 0.0, 0.0, 0.0, 1.6896028789207404E9, 0.0, 2023-07-17 16:07:58.920
105.0, -177585.168491026, -181908.7334762494, -179260.9011245848, -178810.4017150881, -181579.40287344492, -183058.23899009693, -185149.55760831328, 187500.0, 0.036000000000000004, -0.002, 1.002, 192.0, 0.0, 0.0, 0.0, 0.0, 0.0, 0.0, 0.0, 0.0, 0.0, 1.6896028789207847E9, 0.0, 2023-07-17 16:07:58.920
106.0, -177592.54456669625, -181904.01725816933, -179254.28500822606, -178827.63491006315, -181592.38923697345, -183054.68506272853, -185155.23495140494, 187500.0, 0.036000000000000004, -0.002, 1.002, 192.0, 0.0, 0.0, 0.0, 0.0, 0.0, 0.0, 0.0, 0.0, 0.0, 1.689602878920814E9, 0.0, 2023-07-17 16:07:58.920
107.0, -177570.50574666332, -181892.05907488574, -179263.69509264175, -178837.06734622328, -181602.78279814517, -183041.27401605537, -185163.23687591995, 187500.0, 0.032, -0.006, 1.004, 192.0, 1.0, 0.0, 255.0, 208.0, 31.0, 96.0, 0.0, 0.0, 0.0, 1.6896028789208584E9, 0.0, 2023-07-17 16:07:58.920
108.0, -177577.3677322111, -181883.54306024828, -179253.97208380367, -178842.72233757048, -181618.630184964, -183042.61512072268, -185172.78107080236, 187500.0, 0.032, -0.006, 1.004, 192.0, 0.0, 0.0, 0.0, 0.0, 0.0, 0.0, 0.0, 0.0, 0.0, 1.689602878920897E9, 0.0, 2023-07-17 16:07:58.920
109.0, -177573.1656042535, -181869.34970251916, -179237.6553103513, -178848.69025334006, -181627.79440019064, -183037.4518677535, -185190.2601349664, 187500.0, 0.032, -0.006, 1.004, 192.0, 0.0, 0.0, 0.0, 0.0, 0.0, 0.0, 0.0, 0.0, 0.0, 1.689602878920936E9, 0.0, 2023-07-17 16:07:58.920
110.0, -177570.99748504133, -181856.89978085755, -179229.58633060294, -178854.88168655417, -181613.08695233907, -183033.2497397959, -185174.23393419196, 187500.0, 0.032, -0.006, 1.004, 192.0, 0.0, 0.0, 0.0, 0.0, 0.0, 0.0, 0.0, 0.0, 0.0, 1.6896028789209712E9, 0.0, 2023-07-17 16:07:58.920
111.0, -177577.79241535574, -181865.46049898394, -179233.96727251617, -178865.8116895928, -181599.27357426568, -183051.33230106026, -185176.3573499152, 187500.0, 0.032, -0.006, 1.004, 192.0, 0.0, 0.0, 0.0, 0.0, 0.0, 0.0, 0.0, 0.0, 0.0, 1.6896028789210076E9, 0.0, 2023-07-17 16:07:58.921
112.0, -177579.69231363444, -181866.44397573997, -179221.27148166555, -178866.4151866931, -181578.53115541115, -183059.49068778643, -185168.46718412248, 187500.0, 0.032, -0.006, 1.004, 192.0, 0.0, 0.0, 0.0, 0.0, 0.0, 0.0, 0.0, 0.0, 0.0, 1.689602878921065E9, 0.0, 2023-07-17 16:07:58.921
113.0, -177584.07325554767, -181856.36333899063, -179214.83417926243, -178871.75725361792, -181568.5622773841, -183076.5674205503, -185158.20773341748, 187500.0, 0.032, -0.006, 1.004, 192.0, 0.0, 0.0, 0.0, 0.0, 0.0, 0.0, 0.0, 0.0, 0.0, 1.6896028789211104E9, 0.0, 2023-07-17 16:07:58.921
114.0, -177583.53681368075, -181846.46151619693, -179224.82540903395, -178883.6707334126, -181600.4135132329, -183094.58292658126, -185163.57215208677, 187500.0, 0.032, -0.006, 1.004, 192.0, 0.0, 0.0, 0.0, 0.0, 0.0, 0.0, 0.0, 0.0, 0.0, 1.689602878921156E9, 0.0, 2023-07-17 16:07:58.921
115.0, -177562.32500819268, -181854.32933024518, -179234.88369403884, -178866.05755878182, -181607.8566441365, -183077.79676649533, -185182.99581801842, 187500.0, 0.032, -0.006, 1.004, 192.0, 0.0, 0.0, 0.0, 0.0, 0.0, 0.0, 0.0, 0.0, 0.0, 1.689602878921212E9, 0.0, 2023-07-17 16:07:58.921
116.0, -177574.03732228724, -181863.04651058276, -179237.78942081804, -178860.469622668, -181595.92081259738, -183077.23797288394, -185187.9132017986, 187500.0, 0.032, -0.006, 1.004, 192.0, 0.0, 0.0, 0.0, 0.0, 0.0, 0.0, 0.0, 0.0, 0.0, 1.6896028789212685E9, 0.0, 2023-07-17 16:07:58.921
117.0, -177584.34147648115, -181849.34489123165, -179233.8555137939, -178865.476413426, -181604.14625455692, -183094.78409228136, -185181.47589939547, 187500.0, 0.036000000000000004, -0.008, 1.008, 192.0, 1.0, 32.0, 255.0, 192.0, 31.0, 128.0, 0.0, 0.0, 0.0, 1.6896028789213245E9, 0.0, 2023-07-17 16:07:58.921
118.0, -177571.4668716749, -181850.50718194334, -179234.95074927222, -178862.0118930354, -181605.44265573536, -183080.38956885214, -185185.29804769732, 187500.0, 0.036000000000000004, -0.008, 1.008, 192.0, 0.0, 0.0, 0.0, 0.0, 0.0, 0.0, 0.0, 0.0, 0.0, 1.6896028789213784E9, 0.0, 2023-07-17 16:07:58.921
119.0, -177560.87214480308, -181858.5761616917, -179234.34725217192, -178840.1071834692, -181591.38340847296, -183062.7540424769, -185187.7120360985, 187500.0, 0.036000000000000004, -0.008, 1.008, 192.0, 0.0, 0.0, 0.0, 0.0, 0.0, 0.0, 0.0, 0.0, 0.0, 1.689602878921608E9, 0.0, 2023-07-17 16:07:58.921
120.0, -177552.1102609766, -181855.60337967915, -179239.01876676307, -178857.78741333337, -181582.77798685766, -183071.6723885146, -185215.74112364545, 187500.0, 0.036000000000000004, -0.008, 1.008, 192.0, 0.0, 0.0, 0.0, 0.0, 0.0, 0.0, 0.0, 0.0, 0.0, 1.6896028789216592E9, 0.0, 2023-07-17 16:07:58.921
121.0, -177541.1579061935, -181861.75010940435, -179234.63782484984, -178865.5211169149, -181591.1598910284, -183063.44694655502, -185213.59535617774, 187500.0, 0.036000000000000004, -0.008, 1.008, 192.0, 0.0, 0.0, 0.0, 0.0, 0.0, 0.0, 0.0, 0.0, 0.0, 1.6896028793923564E9, 0.0, 2023-07-17 16:07:59.392
122.0, -177557.74290057932, -181844.91924582951, -179210.296775138, -178864.29177096987, -181568.83049831755, -183070.13011814715, -185210.15318753163, 187500.0, 0.036000000000000004, -0.008, 1.008, 192.0, 0.0, 0.0, 0.0, 0.0, 0.0, 0.0, 0.0, 0.0, 0.0, 1.6896028793924515E9, 0.0, 2023-07-17 16:07:59.392
123.0, -177524.01411819627, -181830.7705915893, -179202.9430512122, -178873.61244840772, -181535.5487508236, -183102.87542377418, -185232.12495233119, 187500.0, 0.036000000000000004, -0.008, 1.008, 192.0, 0.0, 0.0, 0.0, 0.0, 0.0, 0.0, 0.0, 0.0, 0.0, 1.689602879392508E9, 0.0, 2023-07-17 16:07:59.392
124.0, -177486.7984636782, -181833.3633939461, -179219.7515630426, -178899.94280337606, -181529.4020210984, -183098.85210977224, -185278.10249067575, 187500.0, 0.036000000000000004, -0.008, 1.008, 192.0, 0.0, 0.0, 0.0, 0.0, 0.0, 0.0, 0.0, 0.0, 0.0, 1.6896028793925967E9, 0.0, 2023-07-17 16:07:59.392
125.0, -177448.64403589297, -181830.30120495573, -179237.94588302923, -178927.8824839452, -181530.3407943655, -183077.6626560286, -185310.51252013596, 187500.0, 0.036000000000000004, -0.008, 1.008, 192.0, 0.0, 0.0, 0.0, 0.0, 0.0, 0.0, 0.0, 0.0, 0.0, 1.6896028793926444E9, 0.0, 2023-07-17 16:07:59.392
126.0, -177405.10283769405, -181823.72979208588, -179249.34527270144, -178951.55298132336, -181530.7431257657, -183054.3497865617, -185313.21708121506, 187500.0, 0.036000000000000004, -0.008, 1.008, 192.0, 0.0, 0.0, 0.0, 0.0, 0.0, 0.0, 0.0, 0.0, 0.0, 1.689602879392691E9, 0.0, 2023-07-17 16:07:59.392
127.0, -177383.13107289447, -181831.4187921785, -179274.04395032453, -178979.7385310815, -181539.23678865872, -183049.67827197057, -185357.85351489228, 187500.0, 0.036000000000000004, -0.012, 1.006, 192.0, 1.0, 32.0, 255.0, 160.0, 31.0, 112.0, 0.0, 0.0, 0.0, 1.6896028793927374E9, 0.0, 2023-07-17 16:07:59.392
128.0, -177364.4226627854, -181829.98828053335, -179294.4734447567, -178999.51982492447, -181543.81889627207, -183038.12242008717, -185343.59310192982, 187500.0, 0.036000000000000004, -0.012, 1.006, 192.0, 0.0, 0.0, 0.0, 0.0, 0.0, 0.0, 0.0, 0.0, 0.0, 1.6896028793927877E9, 0.0, 2023-07-17 16:07:59.392
129.0, -177359.52763074968, -181821.24874845133, -179293.2664505561, -179000.3915429582, -181547.596341085, -183013.49079769742, -185291.02179897093, 187500.0, 0.036000000000000004, -0.012, 1.006, 192.0, 0.0, 0.0, 0.0, 0.0, 0.0, 0.0, 0.0, 0.0, 0.0, 1.6896028793928344E9, 0.0, 2023-07-17 16:07:59.392
130.0, -177368.624790743, -181825.13795198654, -179316.13228513388, -179023.4138397472, -181562.79552731462, -183004.46069293746, -185257.51653403242, 187500.0, 0.036000000000000004, -0.012, 1.006, 192.0, 0.0, 0.0, 0.0, 0.0, 0.0, 0.0, 0.0, 0.0, 0.0, 1.6896028793928814E9, 0.0, 2023-07-17 16:07:59.392
131.0, -177362.58981974004, -181831.932882301, -179334.34895686497, -179049.87830518227, -181573.77023384217, -182998.448073679, -185221.06083882583, 187500.0, 0.036000000000000004, -0.012, 1.006, 192.0, 0.0, 0.0, 0.0, 0.0, 0.0, 0.0, 0.0, 0.0, 0.0, 1.6896028793929214E9, 0.0, 2023-07-17 16:07:59.392
132.0, -177357.09129060403, -181834.99507129134, -179345.45777385923, -179068.83258448038, -181581.23571649025, -182990.0885212527, -185185.67802735307, 187500.0, 0.036000000000000004, -0.012, 1.006, 192.0, 0.0, 0.0, 0.0, 0.0, 0.0, 0.0, 0.0, 0.0, 0.0, 1.6896028793929658E9, 0.0, 2023-07-17 16:07:59.392
133.0, -177346.22834279877, -181834.5703881467, -179350.71043380623, -179080.83547125288, -181588.27651599367, -182977.45978563547, -185152.95507347048, 187500.0, 0.036000000000000004, -0.012, 1.006, 192.0, 0.0, 0.0, 0.0, 0.0, 0.0, 0.0, 0.0, 0.0, 0.0, 1.6896028793930097E9, 0.0, 2023-07-17 16:07:59.393
134.0, -177343.0096915972, -181833.98924279085, -179362.0427682451, -179091.4301981247, -181599.6535539214, -182964.3840151291, -185122.33318356672, 187500.0, 0.036000000000000004, -0.012, 1.006, 192.0, 0.0, 0.0, 0.0, 0.0, 0.0, 0.0, 0.0, 0.0, 0.0, 1.6896028793931515E9, 0.0, 2023-07-17 16:07:59.393
135.0, -177358.38769178244, -181841.4770771834, -179386.38381795693, -179114.38543968028, -181619.14427508644, -182966.55213434127, -185103.445959502, 187500.0, 0.036000000000000004, -0.012, 1.006, 192.0, 0.0, 0.0, 0.0, 0.0, 0.0, 0.0, 0.0, 0.0, 0.0, 1.6896028793931952E9, 0.0, 2023-07-17 16:07:59.393
136.0, -177358.857078416, -181847.91437958652, -179401.6947629088, -179137.65360565827, -181636.35511831703, -182965.81452677425, -185081.65300865806, 187500.0, 0.036000000000000004, -0.012, 1.006, 192.0, 0.0, 0.0, 0.0, 0.0, 0.0, 0.0, 0.0, 0.0, 0.0, 1.6896028793932421E9, 0.0, 2023-07-17 16:07:59.393
137.0, -177357.33715979304, -181849.47900169838, -179406.9474228558, -179146.30373076248, -181643.28415909817, -182955.80094525826, -185052.84161005518, 187500.0, 0.034, -0.004, 1.002, 192.0, 1.0, 16.0, 255.0, 224.0, 31.0, 80.0, 0.0, 0.0, 0.0, 1.6896028793932908E9, 0.0, 2023-07-17 16:07:59.393
138.0, -177364.4673662743, -181862.86769662713, -179414.63642294842, -179147.42131798522, -181660.53970581767, -182952.20231440096, -185030.6686795555, 187500.0, 0.034, -0.004, 1.002, 192.0, 0.0, 0.0, 0.0, 0.0, 0.0, 0.0, 0.0, 0.0, 0.0, 1.689602879393334E9, 0.0, 2023-07-17 16:07:59.393
139.0, -177386.43913107386, -181895.30007783178, -179419.93378638432, -179106.40586690974, -181677.5270316037, -182947.5307998098, -185011.60264153514, 187500.0, 0.034, -0.004, 1.002, 192.0, 0.0, 0.0, 0.0, 0.0, 0.0, 0.0, 0.0, 0.0, 0.0, 1.689602879393378E9, 0.0, 2023-07-17 16:07:59.393
140.0, -177429.5332943837, -181935.35440389568, -179432.58487374603, -179031.68398519565, -181697.0401045132, -182949.74362251087, -185006.84171996615, 187500.0, 0.034, -0.004, 1.002, 192.0, 0.0, 0.0, 0.0, 0.0, 0.0, 0.0, 0.0, 0.0, 0.0, 1.6896028793952587E9, 0.0, 2023-07-17 16:07:59.395
141.0, -177441.5361811562, -181953.5040203934, -179412.73652466972, -178947.73083302152, -181692.3909416665, -182923.0332878868, -184973.0011788608, 187500.0, 0.034, -0.004, 1.002, 192.0, 0.0, 0.0, 0.0, 0.0, 0.0, 0.0, 0.0, 0.0, 0.0, 1.6896028793953073E9, 0.0, 2023-07-17 16:07:59.395
142.0, -177460.78103313223, -181960.03072977433, -179407.66267867837, -178932.21872236952, -181693.91086028944, -182905.35305802265, -184950.31415823867, 187500.0, 0.034, -0.004, 1.002, 192.0, 0.0, 0.0, 0.0, 0.0, 0.0, 0.0, 0.0, 0.0, 0.0, 1.6896028793953567E9, 0.0, 2023-07-17 16:07:59.395
143.0, -177475.01909435025, -181969.5525729123, -179427.77924868814, -178975.60345835728, -181716.30730823366, -182922.0274593863, -184950.11299253858, 187500.0, 0.034, -0.004, 1.002, 192.0, 0.0, 0.0, 0.0, 0.0, 0.0, 0.0, 0.0, 0.0, 0.0, 1.6896028793954053E9, 0.0, 2023-07-17 16:07:59.395
144.0, -177448.01818704823, -181953.3922616711, -179420.4925799957, -178984.41004567267, -181709.64648838597, -182908.415247013, -184926.9565852829, 187500.0, 0.034, -0.004, 1.002, 192.0, 0.0, 0.0, 0.0, 0.0, 0.0, 0.0, 0.0, 0.0, 0.0, 1.6896028793954513E9, 0.0, 2023-07-17 16:07:59.395
145.0, -177416.41282038842, -181939.22125568645, -179418.9503096283, -179002.02322030347, -181705.77963659522, -182899.45219748645, -184919.6922683349, 187500.0, 0.034, -0.004, 1.002, 192.0, 0.0, 0.0, 0.0, 0.0, 0.0, 0.0, 0.0, 0.0, 0.0, 1.6896028793954985E9, 0.0, 2023-07-17 16:07:59.395
146.0, -177388.00375318574, -181926.05607820227, -179413.4070770034, -179013.02027857545, -181691.27335444372, -182897.2170230409, -184954.89626585203, 187500.0, 0.034, -0.004, 1.002, 192.0, 0.0, 0.0, 0.0, 0.0, 0.0, 0.0, 0.0, 0.0, 0.0, 1.6896028793955448E9, 0.0, 2023-07-17 16:07:59.395
147.0, -177400.25250914725, -181916.82480774223, -179390.7871116146, -179003.9007668377, -181695.11785449003, -182942.21108462944, -184983.7076644549, 187500.0, 0.034, -0.006, 1.008, 192.0, 1.0, 16.0, 255.0, 208.0, 31.0, 128.0, 0.0, 0.0, 0.0, 1.6896028793955908E9, 0.0, 2023-07-17 16:07:59.395
148.0, -177448.84520159307, -181893.82486269771, -179329.5209800626, -178959.39844362717, -181715.72616287784, -182960.00307321586, -184987.3062953122, 187500.0, 0.034, -0.006, 1.008, 192.0, 0.0, 0.0, 0.0, 0.0, 0.0, 0.0, 0.0, 0.0, 0.0, 1.689602879395704E9, 0.0, 2023-07-17 16:07:59.395
149.0, -177495.47094052684, -181878.91624914602, -179268.54542118852, -178918.9194344186, -181743.06234634668, -182968.5861430867, -184984.9146586555, 187500.0, 0.034, -0.006, 1.008, 192.0, 0.0, 0.0, 0.0, 0.0, 0.0, 0.0, 0.0, 0.0, 0.0, 1.689602879395746E9, 0.0, 2023-07-17 16:07:59.395
150.0, -177539.4591736149, -181866.1757548065, -179217.98577523063, -178891.71736141652, -181752.07009936217, -182976.65512283507, -184981.9642283874, 187500.0, 0.034, -0.006, 1.008, 192.0, 0.0, 0.0, 0.0, 0.0, 0.0, 0.0, 0.0, 0.0, 0.0, 1.6896028793957908E9, 0.0, 2023-07-17 16:07:59.395
151.0, -177582.28511599125, -181860.0737285702, -179191.72247549566, -178902.60266096625, -181721.26939550275, -183001.13028301363, -184999.93503092945, 187500.0, 0.034, -0.006, 1.008, 192.0, 0.0, 0.0, 0.0, 0.0, 0.0, 0.0, 0.0, 0.0, 0.0, 1.689602879395832E9, 0.0, 2023-07-17 16:07:59.395
152.0, -177582.50863343582, -181852.20591452194, -179187.83327196044, -178916.01370763945, -181680.7233310608, -183020.17396928955, -185030.78043827778, 187500.0, 0.034, -0.006, 1.008, 192.0, 0.0, 0.0, 0.0, 0.0, 0.0, 0.0, 0.0, 0.0, 0.0, 1.6896028793958795E9, 0.0, 2023-07-17 16:07:59.395
153.0, -177522.29303387323, -181843.77930686227, -179190.3366673394, -178926.49667578898, -181653.18598189187, -182999.4986056684, -185073.3381597207, 187500.0, 0.034, -0.006, 1.008, 192.0, 0.0, 0.0, 0.0, 0.0, 0.0, 0.0, 0.0, 0.0, 0.0, 1.6896028793959236E9, 0.0, 2023-07-17 16:07:59.395
154.0, -177478.4836147408, -181847.51204818633, -179210.47558909364, -178955.28572264742, -181641.98775791976, -182987.3392566847, -185131.6538610046, 187500.0, 0.034, -0.006, 1.008, 192.0, 0.0, 0.0, 0.0, 0.0, 0.0, 0.0, 0.0, 0.0, 0.0, 1.6896028793959663E9, 0.0, 2023-07-17 16:07:59.395
155.0, -177437.42346017642, -181841.99116730585, -179217.9634234862, -178976.02814150194, -181626.9673856458, -182968.3402738977, -185179.53129762787, 187500.0, 0.034, -0.006, 1.008, 192.0, 0.0, 0.0, 0.0, 0.0, 0.0, 0.0, 0.0, 0.0, 0.0, 1.6896028793960135E9, 0.0, 2023-07-17 16:07:59.396
156.0, -177407.20390167285, -181834.59273989114, -179231.62033934836, -178993.93188881062, -181610.9635366158, -182958.8854859931, -185223.00544059344, 187500.0, 0.034, -0.006, 1.008, 192.0, 0.0, 0.0, 0.0, 0.0, 0.0, 0.0, 0.0, 0.0, 0.0, 1.689602879396057E9, 0.0, 2023-07-17 16:07:59.396
157.0, -177389.47896831977, -181812.68803032496, -179210.83321700493, -178970.44020538812, -181595.607888175, -182981.90778278207, -185222.22312953748, 187500.0, 0.028, -0.006, 1.006, 192.0, 0.0, 224.0, 255.0, 208.0, 31.0, 112.0, 0.0, 0.0, 0.0, 1.6896028793961E9, 0.0, 2023-07-17 16:07:59.396
158.0, -177450.29806498266, -181808.6200128341, -179178.60200150037, -178937.00199568298, -181634.0752403826, -183013.87077735315, -185221.12789405917, 187500.0, 0.028, -0.006, 1.006, 192.0, 0.0, 0.0, 0.0, 0.0, 0.0, 0.0, 0.0, 0.0, 0.0, 1.6896028793961463E9, 0.0, 2023-07-17 16:07:59.396
159.0, -177516.41452508146, -181813.7609140588, -179148.3377395079, -178916.23722508398, -181680.00807523826, -183036.58014971975, -185226.35820226173, 187500.0, 0.028, -0.006, 1.006, 192.0, 0.0, 0.0, 0.0, 0.0, 0.0, 0.0, 0.0, 0.0, 0.0, 1.6896028793961904E9, 0.0, 2023-07-17 16:07:59.396
160.0, -177575.08785427664, -181822.14281822953, -179129.8751985878, -178921.64634724217, -181682.95850550634, -183055.89205692912, -185235.3659552772, 187500.0, 0.028, -0.006, 1.006, 192.0, 0.0, 0.0, 0.0, 0.0, 0.0, 0.0, 0.0, 0.0, 0.0, 1.6896028793962345E9, 0.0, 2023-07-17 16:07:59.396
161.0, -177562.14619423702, -181824.98148977538, -179141.7886783825, -178941.7405655075, -181665.2335721533, -183052.71810921648, -185253.4261647971, 187500.0, 0.028, -0.006, 1.006, 192.0, 0.0, 0.0, 0.0, 0.0, 0.0, 0.0, 0.0, 0.0, 0.0, 1.6896028793962777E9, 0.0, 2023-07-17 16:07:59.396
162.0, -177540.152077693, -181833.05046952373, -179167.9402193952, -178956.0456819589, -181674.1295664465, -183042.1010306002, -185233.77898142088, 187500.0, 0.028, -0.006, 1.006, 192.0, 0.0, 0.0, 0.0, 0.0, 0.0, 0.0, 0.0, 0.0, 0.0, 1.689602879396321E9, 0.0, 2023-07-17 16:07:59.396
163.0, -177542.409603883, -181844.76278361832, -179181.41832130175, -178911.78922793738, -181688.16646196443, -183029.20407404948, -185202.33007697226, 187500.0, 0.028, -0.006, 1.006, 192.0, 0.0, 0.0, 0.0, 0.0, 0.0, 0.0, 0.0, 0.0, 0.0, 1.689602879396426E9, 0.0, 2023-07-17 16:07:59.396
164.0, -177569.90224956302, -181832.60343463463, -179152.11518432084, -178891.67265792761, -181673.7272350463, -183029.6511089386, -185181.207678462, 187500.0, 0.028, -0.006, 1.006, 192.0, 0.0, 0.0, 0.0, 0.0, 0.0, 0.0, 0.0, 0.0, 0.0, 1.689602879396471E9, 0.0, 2023-07-17 16:07:59.396
165.0, -177575.13255776555, -181841.18650450546, -179165.74974843857, -178925.8261234553, -181657.119888916, -183053.72393771698, -185210.6225741652, 187500.0, 0.028, -0.006, 1.006, 192.0, 0.0, 0.0, 0.0, 0.0, 0.0, 0.0, 0.0, 0.0, 0.0, 1.6896028793965147E9, 0.0, 2023-07-17 16:07:59.396
166.0, -177537.29105440274, -181838.169019004, -179184.50286203658, -178935.45972531554, -181652.35896734704, -183036.8036671643, -185192.5176611564, 187500.0, 0.028, -0.006, 1.006, 192.0, 0.0, 0.0, 0.0, 0.0, 0.0, 0.0, 0.0, 0.0, 0.0, 1.689602879396558E9, 0.0, 2023-07-17 16:07:59.396
167.0, -177540.33089164866, -181867.98624610738, -179212.28608039452, -178921.3781263087, -181662.5290110742, -183032.75800141788, -185176.6479225931, 187500.0, 0.03, -0.004, 1.0, 192.0, 0.0, 240.0, 255.0, 224.0, 31.0, 64.0, 0.0, 0.0, 0.0, 1.689602879396604E9, 0.0, 2023-07-17 16:07:59.396
168.0, -177543.9071707615, -181842.7734783618, -179180.01016140106, -178889.10220731524, -181602.42517023388, -183028.33235601574, -185152.73155602594, 187500.0, 0.03, -0.004, 1.0, 192.0, 0.0, 0.0, 0.0, 0.0, 0.0, 0.0, 0.0, 0.0, 0.0, 1.6896028793966496E9, 0.0, 2023-07-17 16:07:59.396
169.0, -177547.63991208555, -181831.4634956674, -179174.15400435377, -178897.46175974153, -181563.68959709283, -183075.02515018286, -185170.36708240118, 187500.0, 0.03, -0.004, 1.0, 192.0, 0.0, 0.0, 0.0, 0.0, 0.0, 0.0, 0.0, 0.0, 0.0, 1.6896028793966887E9, 0.0, 2023-07-17 16:07:59.396
170.0, -177510.49131280082, -181835.50916141382, -179195.6340307753, -178923.34507982078, -181553.27368417665, -183099.03092372787, -185216.65754516813, 187500.0, 0.03, -0.004, 1.0, 192.0, 0.0, 0.0, 0.0, 0.0, 0.0, 0.0, 0.0, 0.0, 0.0, 1.6896028793967304E9, 0.0, 2023-07-17 16:07:59.396
171.0, -177485.3008967997, -181849.88133309857, -179225.2053886897, -178963.15353669567, -181554.5477336106, -183090.04552245684, -185275.26381912993, 187500.0, 0.03, -0.004, 1.0, 192.0, 0.0, 0.0, 0.0, 0.0, 0.0, 0.0, 0.0, 0.0, 0.0, 1.6896028793967705E9, 0.0, 2023-07-17 16:07:59.396
172.0, -177438.65280612145, -181838.23607423736, -179229.27340618055, -178975.55875486837, -181543.46126836078, -183062.15054537661, -185316.32397369432, 187500.0, 0.03, -0.004, 1.0, 192.0, 0.0, 0.0, 0.0, 0.0, 0.0, 0.0, 0.0, 0.0, 0.0, 1.6896028793968108E9, 0.0, 2023-07-17 16:07:59.396
173.0, -177388.16021539693, -181819.661774595, -179228.1111154689, -178985.66174336217, -181525.02107918516, -183031.97569036196, -185355.08189857984, 187500.0, 0.03, -0.004, 1.0, 192.0, 0.0, 0.0, 0.0, 0.0, 0.0, 0.0, 0.0, 0.0, 0.0, 1.6896028793968487E9, 0.0, 2023-07-17 16:07:59.396
174.0, -177364.7579389522, -181820.39938216202, -179248.27238896757, -179010.33806924082, -181526.87627397495, -183016.7988558768, -185362.07799459435, 187500.0, 0.03, -0.004, 1.0, 192.0, 0.0, 0.0, 0.0, 0.0, 0.0, 0.0, 0.0, 0.0, 0.0, 1.68960287939689E9, 0.0, 2023-07-17 16:07:59.396
175.0, -177341.69093867435, -181817.09132398263, -179269.3053805, -179028.93472062764, -181537.9403874803, -183002.38198070313, -185339.01099431646, 187500.0, 0.03, -0.004, 1.0, 192.0, 0.0, 0.0, 0.0, 0.0, 0.0, 0.0, 0.0, 0.0, 0.0, 1.6896028793969316E9, 0.0, 2023-07-17 16:07:59.396
176.0, -177310.599662137, -181805.37900988807, -179268.9701043332, -179035.55083698643, -181528.30678562008, -182978.2868001803, -185361.36273877177, 187500.0, 0.03, -0.004, 1.0, 192.0, 0.0, 0.0, 0.0, 0.0, 0.0, 0.0, 0.0, 0.0, 0.0, 1.6896028793969722E9, 0.0, 2023-07-17 16:07:59.396
177.0, -177303.02242076665, -181809.29056516776, -179277.75433990412, -179053.14165987275, -181518.76259073766, -182969.01082623136, -185399.78538749044, 187500.0, 0.032, -0.008, 1.002, 192.0, 1.0, 0.0, 255.0, 192.0, 31.0, 80.0, 0.0, 0.0, 0.0, 1.689602879397015E9, 0.0, 2023-07-17 16:07:59.397
178.0, -177299.3120311871, -181815.10201872612, -179281.9117643728, -179063.6693315112, -181496.41084628235, -182999.4539021795, -185422.60651857933, 187500.0, 0.032, -0.008, 1.002, 192.0, 0.0, 0.0, 0.0, 0.0, 0.0, 0.0, 0.0, 0.0, 0.0, 1.6896028793971128E9, 0.0, 2023-07-17 16:07:59.397
179.0, -177314.73473486124, -181808.39649538952, -179266.556115932, -179062.55174428842, -181460.75981387615, -183051.57817024927, -185425.55694884743, 187500.0, 0.032, -0.008, 1.002, 192.0, 0.0, 0.0, 0.0, 0.0, 0.0, 0.0, 0.0, 0.0, 0.0, 1.6896028793971598E9, 0.0, 2023-07-17 16:07:59.397
180.0, -177371.75403496673, -181793.82315800467, -179237.94588302923, -179028.39827876072, -181434.96590077473, -183085.50811833242, -185415.29749814243, 187500.0, 0.032, -0.008, 1.002, 192.0, 0.0, 0.0, 0.0, 0.0, 0.0, 0.0, 0.0, 0.0, 0.0, 1.6896028793972034E9, 0.0, 2023-07-17 16:07:59.397
181.0, -177426.44875364887, -181778.04282641923, -179193.42120807426, -178984.32063869486, -181465.00664532266, -183093.89002250315, -185399.0701316679, 187500.0, 0.032, -0.008, 1.002, 192.0, 0.0, 0.0, 0.0, 0.0, 0.0, 0.0, 0.0, 0.0, 0.0, 1.6896028793972461E9, 0.0, 2023-07-17 16:07:59.397
182.0, -177484.76445493277, -181773.661884506, -179152.36105350984, -178956.71623429254, -181503.3398870635, -183098.69564756105, -185382.52984077096, 187500.0, 0.032, -0.008, 1.002, 192.0, 0.0, 0.0, 0.0, 0.0, 0.0, 0.0, 0.0, 0.0, 0.0, 1.6896028793972893E9, 0.0, 2023-07-17 16:07:59.397
183.0, -177509.70900174486, -181763.29067507872, -179117.51468390404, -178945.62976904272, -181483.5362414761, -183106.87638603168, -185370.996340632, 187500.0, 0.032, -0.008, 1.002, 192.0, 0.0, 0.0, 0.0, 0.0, 0.0, 0.0, 0.0, 0.0, 0.0, 1.689602879397333E9, 0.0, 2023-07-17 16:07:59.397
184.0, -177484.5409374882, -181762.17308785595, -179122.38736419528, -178959.33138839382, -181464.55961043356, -183155.71494766654, -185386.73196872856, 187500.0, 0.032, -0.008, 1.002, 192.0, 0.0, 0.0, 0.0, 0.0, 0.0, 0.0, 0.0, 0.0, 0.0, 1.6896028793973765E9, 0.0, 2023-07-17 16:07:59.397
185.0, -177456.02011156324, -181763.46948903435, -179131.2386549996, -178967.75799605346, -181449.15925850385, -183208.17449190313, -185406.13328291575, 187500.0, 0.032, -0.008, 1.002, 192.0, 0.0, 0.0, 0.0, 0.0, 0.0, 0.0, 0.0, 0.0, 0.0, 1.6896028793974197E9, 0.0, 2023-07-17 16:07:59.397
186.0, -177420.79376230168, -181754.93112265243, -179122.16384675074, -178966.77451929744, -181414.73757204268, -183248.36292843378, -185410.1118934288, 187500.0, 0.032, -0.008, 1.002, 192.0, 0.0, 0.0, 0.0, 0.0, 0.0, 0.0, 0.0, 0.0, 0.0, 1.689602879397463E9, 0.0, 2023-07-17 16:07:59.397
187.0, -177431.52259964022, -181753.7911836852, -179114.60895712484, -178968.51795536495, -181371.53165001055, -183283.14224280624, -185405.03804743744, 187500.0, 0.032, -0.008, 1.002, 192.0, 1.0, 0.0, 255.0, 192.0, 31.0, 80.0, 0.0, 0.0, 0.0, 1.6896028793975072E9, 0.0, 2023-07-17 16:07:59.397
188.0, -177481.41169326447, -181749.63375921652, -179104.55067211995, -178960.87365876124, -181335.6571001598, -183292.17234756617, -185402.98168694755, 187500.0, 0.032, -0.008, 1.002, 192.0, 0.0, 0.0, 0.0, 0.0, 0.0, 0.0, 0.0, 0.0, 0.0, 1.689602879397552E9, 0.0, 2023-07-17 16:07:59.397
189.0, -177527.56804556467, -181748.42676501593, -179095.29704991545, -178962.08065296183, -181310.13140799184, -183294.34046677835, -185401.03708517994, 187500.0, 0.032, -0.008, 1.002, 192.0, 0.0, 0.0, 0.0, 0.0, 0.0, 0.0, 0.0, 0.0, 0.0, 1.6896028793975964E9, 0.0, 2023-07-17 16:07:59.397
190.0, -177570.6622088745, -181743.2858637912, -179093.55361384794, -178962.01359772845, -181287.71260830315, -183296.97797262407, -185399.62892527928, 187500.0, 0.032, -0.008, 1.002, 192.0, 0.0, 0.0, 0.0, 0.0, 0.0, 0.0, 0.0, 0.0, 0.0, 1.6896028793976405E9, 0.0, 2023-07-17 16:07:59.397
191.0, -177600.94882261145, -181736.58034045465, -179089.6197068238, -178954.6375220582, -181264.2432766251, -183304.01877212749, -185394.1080443988, 187500.0, 0.032, -0.008, 1.002, 192.0, 0.0, 0.0, 0.0, 0.0, 0.0, 0.0, 0.0, 0.0, 0.0, 1.689602879397683E9, 0.0, 2023-07-17 16:07:59.397
192.0, -177637.4715730514, -181737.72027942186, -179076.5662880619, -178943.86398123074, -181285.20921292415, -183312.9594699096, -185392.49871879802, 187500.0, 0.032, -0.008, 1.002, 192.0, 0.0, 0.0, 0.0, 0.0, 0.0, 0.0, 0.0, 0.0, 0.0, 1.6896028793977263E9, 0.0, 2023-07-17 16:07:59.397
193.0, -177655.95646571595, -181731.73001190784, -179045.02797663547, -178934.4762485595, -181292.11590196085, -183313.78648445447, -185383.93800067162, 187500.0, 0.032, -0.008, 1.002, 192.0, 0.0, 0.0, 0.0, 0.0, 0.0, 0.0, 0.0, 0.0, 0.0, 1.6896028793978283E9, 0.0, 2023-07-17 16:07:59.397
194.0, -177663.75722453085, -181713.37922971003, -179025.85017989282, -178921.64634724217, -181264.91382895873, -183331.0643829184, -185373.9020674112, 187500.0, 0.032, -0.008, 1.002, 192.0, 0.0, 0.0, 0.0, 0.0, 0.0, 0.0, 0.0, 0.0, 0.0, 1.6896028793978724E9, 0.0, 2023-07-17 16:07:59.397
195.0, -177696.8378063247, -181713.98272681033, -179029.94054912814, -178922.719230976, -181260.06350041195, -183360.23340943258, -185376.58427674585, 187500.0, 0.032, -0.008, 1.002, 192.0, 0.0, 0.0, 0.0, 0.0, 0.0, 0.0, 0.0, 0.0, 0.0, 1.6896028793979194E9, 0.0, 2023-07-17 16:07:59.397
196.0, -177704.5044546729, -181694.7378748343, -179004.32544998234, -178879.93799208855, -181299.71549507565, -183348.275226149, -185357.58529395884, 187500.0, 0.034, -0.016, 1.006, 192.0, 1.0, 16.0, 255.0, 128.0, 31.0, 112.0, 0.0, 0.0, 0.0, 1.6896028793979647E9, 0.0, 2023-07-17 16:07:59.397
197.0, -177700.3023267153, -181701.17517723743, -178988.27689746345, -178865.968151804, -181355.6619114473, -183323.4200863147, -185323.7447528535, 187500.0, 0.034, -0.016, 1.006, 192.0, 0.0, 0.0, 0.0, 0.0, 0.0, 0.0, 0.0, 0.0, 0.0, 1.689602879398014E9, 0.0, 2023-07-17 16:07:59.398
198.0, -177693.3509341897, -181720.48708444682, -179020.79868564592, -178888.11873055922, -181394.57629854398, -183292.55232722193, -185291.80411002686, 187500.0, 0.034, -0.016, 1.006, 192.0, 0.0, 0.0, 0.0, 0.0, 0.0, 0.0, 0.0, 0.0, 0.0, 1.689602879398058E9, 0.0, 2023-07-17 16:07:59.398
199.0, -177655.37532036012, -181735.3956979985, -179064.78691873397, -178918.5841582518, -181425.80168554804, -183270.04412055542, -185260.3775573227, 187500.0, 0.034, -0.016, 1.006, 192.0, 0.0, 0.0, 0.0, 0.0, 0.0, 0.0, 0.0, 0.0, 0.0, 1.6896028793981028E9, 0.0, 2023-07-17 16:07:59.398
200.0, -177593.23747077436, -181737.2508927883, -179090.24555566855, -178933.6268822702, -181445.69473811326, -183242.68558534214, -185261.00340616744, 187500.0, 0.034, -0.016, 1.006, 192.0, 0.0, 0.0, 0.0, 0.0, 0.0, 0.0, 0.0, 0.0, 0.0, 1.6896028793981464E9, 0.0, 2023-07-17 16:07:59.398
201.0, -177533.2006851674, -181727.34906999458, -179099.70034357315, -178943.86398123074, -181434.54121763006, -183213.98594546152, -185290.53006059292, 187500.0, 0.034, -0.016, 1.006, 192.0, 0.0, 0.0, 0.0, 0.0, 0.0, 0.0, 0.0, 0.0, 0.0, 1.6896028793981905E9, 0.0, 2023-07-17 16:07:59.398
202.0, -177551.68557783196, -181723.01283157026, -179095.4758638711, -178934.3421380928, -181429.31090942753, -183211.66136403815, -185294.7321885505, 187500.0, 0.034, -0.016, 1.006, 192.0, 0.0, 0.0, 0.0, 0.0, 0.0, 0.0, 0.0, 0.0, 0.0, 1.6896028793982356E9, 0.0, 2023-07-17 16:07:59.398
203.0, -177598.8701103771, -181723.7951426262, -179077.39330260674, -178906.49186450147, -181480.6975699303, -183223.21721592156, -185293.68165656112, 187500.0, 0.034, -0.016, 1.006, 192.0, 0.0, 0.0, 0.0, 0.0, 0.0, 0.0, 0.0, 0.0, 0.0, 1.6896028793982809E9, 0.0, 2023-07-17 16:07:59.398
204.0, -177641.76310798683, -181732.02058458576, -179053.8122122064, -178893.77372190641, -181517.4885413037, -183231.77793404795, -185294.19574668357, 187500.0, 0.034, -0.016, 1.006, 192.0, 0.0, 0.0, 0.0, 0.0, 0.0, 0.0, 0.0, 0.0, 0.0, 1.689602879398326E9, 0.0, 2023-07-17 16:07:59.398
205.0, -177640.26554110833, -181733.96518635337, -179042.05519462292, -178901.30625978785, -181496.25438407116, -183249.56992263437, -185292.96640073854, 187500.0, 0.034, -0.016, 1.006, 192.0, 0.0, 0.0, 0.0, 0.0, 0.0, 0.0, 0.0, 0.0, 0.0, 1.6896028793983698E9, 0.0, 2023-07-17 16:07:59.398
206.0, -177600.25591853334, -181741.0506893457, -179074.10759617182, -178920.43935304158, -181503.96573590825, -183269.4182717107, -185284.09275818977, 187500.0, 0.034, -0.016, 1.006, 192.0, 1.0, 16.0, 255.0, 128.0, 31.0, 112.0, 0.0, 0.0, 0.0, 1.6896028793984146E9, 0.0, 2023-07-17 16:07:59.398
207.0, -177582.70979913592, -181764.94470416842, -179106.71879133212, -178905.08370460078, -181526.6974600193, -183251.71569010208, -185254.14142061968, 187500.0, 0.034, -0.016, 1.006, 192.0, 0.0, 0.0, 0.0, 0.0, 0.0, 0.0, 0.0, 0.0, 0.0, 1.6896028793985167E9, 0.0, 2023-07-17 16:07:59.398
208.0, -177591.98577308486, -181768.11865188106, -179099.78975055096, -178880.89911710014, -181530.6984222768, -183233.23079743754, -185230.94030987506, 187500.0, 0.034, -0.016, 1.006, 192.0, 0.0, 0.0, 0.0, 0.0, 0.0, 0.0, 0.0, 0.0, 0.0, 1.6896028793985624E9, 0.0, 2023-07-17 16:07:59.398
209.0, -177597.08197082067, -181762.5083640228, -179101.64494534075, -178893.55020446185, -181517.6450035149, -183240.11513472977, -185249.40285079516, 187500.0, 0.034, -0.016, 1.006, 192.0, 0.0, 0.0, 0.0, 0.0, 0.0, 0.0, 0.0, 0.0, 0.0, 1.6896028793986073E9, 0.0, 2023-07-17 16:07:59.398
210.0, -177540.26383641528, -181759.3120645657, -179110.83151231188, -178911.722172704, -181506.4914830317, -183215.66232629566, -185287.82549951383, 187500.0, 0.034, -0.016, 1.006, 192.0, 0.0, 0.0, 0.0, 0.0, 0.0, 0.0, 0.0, 0.0, 0.0, 1.6896028793986523E9, 0.0, 2023-07-17 16:07:59.398
211.0, -177480.1376438305, -181746.7503841818, -179127.70707937566, -178921.1322571197, -181497.10375036046, -183180.2795148229, -185330.58438665682, 187500.0, 0.034, -0.016, 1.006, 192.0, 0.0, 0.0, 0.0, 0.0, 0.0, 0.0, 0.0, 0.0, 0.0, 1.6896028793986948E9, 0.0, 2023-07-17 16:07:59.398
212.0, -177448.75579461525, -181747.7562126823, -179145.1414400508, -178938.8795422172, -181482.3963025089, -183170.46709900704, -185361.29568353842, 187500.0, 0.034, -0.016, 1.006, 192.0, 0.0, 0.0, 0.0, 0.0, 0.0, 0.0, 0.0, 0.0, 0.0, 1.6896028793987324E9, 0.0, 2023-07-17 16:07:59.398
213.0, -177464.26790526725, -181748.22559931583, -179141.8333818714, -178942.6346352857, -181454.81424985104, -183197.51270979794, -185361.38509051624, 187500.0, 0.034, -0.016, 1.006, 192.0, 0.0, 0.0, 0.0, 0.0, 0.0, 0.0, 0.0, 0.0, 0.0, 1.6896028793987708E9, 0.0, 2023-07-17 16:07:59.398
214.0, -177520.32608036115, -181751.4442505174, -179124.89075957428, -178926.09434438878, -181484.16209032084, -183211.66136403815, -185352.10911656727, 187500.0, 0.034, -0.016, 1.006, 192.0, 0.0, 0.0, 0.0, 0.0, 0.0, 0.0, 0.0, 0.0, 0.0, 1.6896028793988116E9, 0.0, 2023-07-17 16:07:59.398
215.0, -177564.53783089374, -181748.02443361576, -179088.7256370456, -178916.05841112835, -181473.74617740468, -183209.22502389253, -185339.77095362794, 187500.0, 0.034, -0.016, 1.006, 192.0, 0.0, 0.0, 0.0, 0.0, 0.0, 0.0, 0.0, 0.0, 0.0, 1.6896028793988533E9, 0.0, 2023-07-17 16:07:59.398
216.0, -177593.14806379654, -181738.45788698888, -179076.29806712843, -178917.9806611515, -181433.84831355195, -183221.98786997652, -185342.4978664515, 187500.0, 0.034, -0.012, 1.006, 192.0, 1.0, 16.0, 255.0, 160.0, 31.0, 112.0, 0.0, 0.0, 0.0, 1.6896028793988953E9, 0.0, 2023-07-17 16:07:59.398
217.0, -177620.55130249876, -181736.2003607989, -179074.1746514052, -178920.2828908304, -181397.79494974556, -183242.70793708658, -185342.98960482952, 187500.0, 0.034, -0.012, 1.006, 192.0, 0.0, 0.0, 0.0, 0.0, 0.0, 0.0, 0.0, 0.0, 0.0, 1.6896028793989396E9, 0.0, 2023-07-17 16:07:59.398
218.0, -177649.02742493481, -181735.73097416534, -179076.43217759518, -178927.74837347848, -181376.560792513, -183276.28025725845, -185351.37150900025, 187500.0, 0.034, -0.012, 1.006, 192.0, 0.0, 0.0, 0.0, 0.0, 0.0, 0.0, 0.0, 0.0, 0.0, 1.6896028793989851E9, 0.0, 2023-07-17 16:07:59.398
219.0, -177683.940849774, -181736.78150615472, -179080.58960206385, -178936.9796439385, -181359.0593766045, -183310.59018499736, -185361.34038702733, 187500.0, 0.034, -0.012, 1.006, 192.0, 0.0, 0.0, 0.0, 0.0, 0.0, 0.0, 0.0, 0.0, 0.0, 1.6896028793990283E9, 0.0, 2023-07-17 16:07:59.399
220.0, -177703.76684710584, -181733.60755844208, -179064.7645669895, -178911.14102734817, -181374.77265295657, -183317.18394961167, -185349.18103804364, 187500.0, 0.034, -0.012, 1.006, 192.0, 0.0, 0.0, 0.0, 0.0, 0.0, 0.0, 0.0, 0.0, 0.0, 1.6896028793990707E9, 0.0, 2023-07-17 16:07:59.399
221.0, -177724.88924561613, -181777.46168106337, -179077.23684039558, -178871.75725361792, -181430.56260711703, -183316.64750774475, -185334.31712798084, 187500.0, 0.034, -0.012, 1.006, 192.0, 0.0, 0.0, 0.0, 0.0, 0.0, 0.0, 0.0, 0.0, 0.0, 1.6896028793991144E9, 0.0, 2023-07-17 16:07:59.399
222.0, -177705.66674538454, -181791.8562044926, -179086.35635213333, -178826.87495075166, -181446.34293870247, -183272.5028124455, -185281.92463897762, 187500.0, 0.034, -0.012, 1.006, 192.0, 0.0, 0.0, 0.0, 0.0, 0.0, 0.0, 0.0, 0.0, 0.0, 1.6896028793992283E9, 0.0, 2023-07-17 16:07:59.399
223.0, -177677.0788642262, -181790.89507948104, -179102.40490465224, -178832.61934907667, -181456.75885161865, -183232.4484863816, -185230.44857149705, 187500.0, 0.034, -0.012, 1.006, 192.0, 0.0, 0.0, 0.0, 0.0, 0.0, 0.0, 0.0, 0.0, 0.0, 1.6896028793992746E9, 0.0, 2023-07-17 16:07:59.399
224.0, -177625.89336942357, -181788.14581491303, -179128.75761136506, -178852.24418070845, -181465.4313284673, -183201.75954124448, -185203.17944326156, 187500.0, 0.034, -0.012, 1.006, 192.0, 0.0, 0.0, 0.0, 0.0, 0.0, 0.0, 0.0, 0.0, 0.0, 1.6896028793993175E9, 0.0, 2023-07-17 16:07:59.399
225.0, -177565.02956927178, -181784.21190788888, -179148.8294778859, -178874.1712420191, -181469.3875872359, -183188.95199167158, -185231.00736510844, 187500.0, 0.034, -0.012, 1.006, 192.0, 0.0, 0.0, 0.0, 0.0, 0.0, 0.0, 0.0, 0.0, 0.0, 1.6896028793993611E9, 0.0, 2023-07-17 16:07:59.399
226.0, -177545.53884810675, -181785.28479162275, -179149.3435680084, -178863.12948025818, -181484.36325602094, -183216.4446373516, -185249.49225777297, 187500.0, 0.032, -0.012, 1.006, 192.0, 1.0, 0.0, 255.0, 160.0, 31.0, 112.0, 0.0, 0.0, 0.0, 1.689602879399404E9, 0.0, 2023-07-17 16:07:59.399
227.0, -177553.92075227748, -181805.62487907708, -179151.51168722054, -178836.86618052318, -181508.70430573277, -183207.16866340264, -185226.11233307273, 187500.0, 0.032, -0.012, 1.006, 192.0, 0.0, 0.0, 0.0, 0.0, 0.0, 0.0, 0.0, 0.0, 0.0, 1.689602879399449E9, 0.0, 2023-07-17 16:07:59.399
228.0, -177535.7040805464, -181828.35660318812, -179185.55339402598, -178873.3665792187, -181529.1338001649, -183196.21630861954, -185224.97239410548, 187500.0, 0.032, -0.012, 1.006, 192.0, 0.0, 0.0, 0.0, 0.0, 0.0, 0.0, 0.0, 0.0, 0.0, 1.6896028793994923E9, 0.0, 2023-07-17 16:07:59.399
229.0, -177481.4340450089, -181813.3585826586, -179188.8391004609, -178886.26353576942, -181509.95600342227, -183162.19695355857, -185250.16281010662, 187500.0, 0.032, -0.012, 1.006, 192.0, 0.0, 0.0, 0.0, 0.0, 0.0, 0.0, 0.0, 0.0, 0.0, 1.6896028793995357E9, 0.0, 2023-07-17 16:07:59.399
230.0, -177455.23780050728, -181805.17784418797, -179185.2404696036, -178884.2742305129, -181498.847186428, -183170.44474726258, -185268.91592370463, 187500.0, 0.032, -0.012, 1.006, 192.0, 0.0, 0.0, 0.0, 0.0, 0.0, 0.0, 0.0, 0.0, 0.0, 1.6896028793995786E9, 0.0, 2023-07-17 16:07:59.399
231.0, -177482.21635606486, -181812.12923671358, -179171.47179501914, -178854.23348596497, -181522.40592508388, -183182.96172415756, -185256.9800921655, 187500.0, 0.032, -0.012, 1.006, 192.0, 0.0, 0.0, 0.0, 0.0, 0.0, 0.0, 0.0, 0.0, 0.0, 1.6896028793996215E9, 0.0, 2023-07-17 16:07:59.399
232.0, -177482.12694908702, -181822.25457695182, -179194.538795297, -178864.33647445877, -181539.25914040318, -183166.46613674954, -185232.10260058675, 187500.0, 0.032, -0.012, 1.006, 192.0, 0.0, 0.0, 0.0, 0.0, 0.0, 0.0, 0.0, 0.0, 0.0, 1.6896028793996649E9, 0.0, 2023-07-17 16:07:59.399
233.0, -177450.99096906077, -181825.7190973424, -179215.77295252954, -178891.53854746086, -181538.38742236941, -183151.40106098665, -185254.85667644223, 187500.0, 0.032, -0.012, 1.006, 192.0, 0.0, 0.0, 0.0, 0.0, 0.0, 0.0, 0.0, 0.0, 0.0, 1.6896028793997078E9, 0.0, 2023-07-17 16:07:59.399
234.0, -177427.8345618051, -181825.33911768664, -179225.02657473405, -178914.471437272, -181517.86852095946, -183142.25919750443, -185284.65155180116, 187500.0, 0.032, -0.012, 1.006, 192.0, 0.0, 0.0, 0.0, 0.0, 0.0, 0.0, 0.0, 0.0, 0.0, 1.6896028793997507E9, 0.0, 2023-07-17 16:07:59.399
235.0, -177439.45746892184, -181827.3284229432, -179214.9012344958, -178894.22075679552, -181520.9977651832, -183153.05509007635, -185286.05971170185, 187500.0, 0.032, -0.012, 1.006, 192.0, 0.0, 0.0, 0.0, 0.0, 0.0, 0.0, 0.0, 0.0, 0.0, 1.689602879399794E9, 0.0, 2023-07-17 16:07:59.399
236.0, -177473.00743734927, -181853.47996395588, -179214.18597867322, -178870.1255762727, -181548.0433759741, -183144.1367440387, -185259.01410091092, 187500.0, 0.036000000000000004, -0.014, 1.008, 192.0, 1.0, 32.0, 255.0, 144.0, 31.0, 128.0, 0.0, 0.0, 0.0, 1.6896028793998373E9, 0.0, 2023-07-17 16:07:59.399
237.0, -177461.89862035497, -181856.85507736864, -179233.31907192696, -178893.03611433937, -181554.14540221042, -183124.51191240692, -185225.95587086154, 187500.0, 0.036000000000000004, -0.014, 1.008, 192.0, 0.0, 0.0, 0.0, 0.0, 0.0, 0.0, 0.0, 0.0, 0.0, 1.6896028794000654E9, 0.0, 2023-07-17 16:07:59.400
238.0, -177438.76456484373, -181861.10190881515, -179257.99539780564, -178928.0389461564, -181557.38640515643, -183113.1125227347, -185238.6740134566, 187500.0, 0.036000000000000004, -0.014, 1.008, 192.0, 0.0, 0.0, 0.0, 0.0, 0.0, 0.0, 0.0, 0.0, 0.0, 1.6896028794001093E9, 0.0, 2023-07-17 16:07:59.400
239.0, -177411.9648232418, -181858.84438262516, -179267.94192408826, -178947.999053955, -181544.10946895, -183090.04552245684, -185280.85175524376, 187500.0, 0.036000000000000004, -0.014, 1.008, 192.0, 0.0, 0.0, 0.0, 0.0, 0.0, 0.0, 0.0, 0.0, 0.0, 1.6896028794001513E9, 0.0, 2023-07-17 16:07:59.400
240.0, -177392.63056428797, -181857.72679540238, -179265.97497057618, -178967.31096116436, -181520.66248901637, -183087.02803695537, -185309.0820084908, 187500.0, 0.036000000000000004, -0.014, 1.008, 192.0, 0.0, 0.0, 0.0, 0.0, 0.0, 0.0, 0.0, 0.0, 0.0, 1.6896028794001927E9, 0.0, 2023-07-17 16:07:59.400
241.0, -177405.43811386087, -181836.60439689213, -179240.06929875247, -178951.95531272356, -181484.67618044332, -183112.5090256344, -185306.66802008965, 187500.0, 0.036000000000000004, -0.014, 1.008, 192.0, 0.0, 0.0, 0.0, 0.0, 0.0, 0.0, 0.0, 0.0, 0.0, 1.6896028798732305E9, 0.0, 2023-07-17 16:07:59.873
242.0, -177442.94434105686, -181823.52862638579, -179209.38035361533, -178930.0282514129, -181497.72959920522, -183106.98814475397, -185282.483432589, 187500.0, 0.036000000000000004, -0.014, 1.008, 192.0, 0.0, 0.0, 0.0, 0.0, 0.0, 0.0, 0.0, 0.0, 0.0, 1.6896028798733535E9, 0.0, 2023-07-17 16:07:59.873
243.0, -177451.2368382498, -181835.03977478025, -179228.78166780254, -178958.97376048253, -181520.95306169428, -183098.7627027944, -185255.61663575371, 187500.0, 0.036000000000000004, -0.014, 1.008, 192.0, 0.0, 0.0, 0.0, 0.0, 0.0, 0.0, 0.0, 0.0, 0.0, 1.689602879875243E9, 0.0, 2023-07-17 16:07:59.875
244.0, -177436.39527993146, -181848.07084179771, -179259.18004026177, -178989.1933189861, -181535.23582640121, -183092.23599341346, -185283.71277853404, 187500.0, 0.036000000000000004, -0.014, 1.008, 192.0, 0.0, 0.0, 0.0, 0.0, 0.0, 0.0, 0.0, 0.0, 0.0, 1.6896028798753235E9, 0.0, 2023-07-17 16:07:59.875
245.0, -177407.94150923987, -181843.30992022873, -179271.54055494556, -179011.4109529747, -181532.17363741086, -183074.17578389356, -185334.98768031452, 187500.0, 0.036000000000000004, -0.014, 1.008, 192.0, 0.0, 0.0, 0.0, 0.0, 0.0, 0.0, 0.0, 0.0, 0.0, 1.6896028798753712E9, 0.0, 2023-07-17 16:07:59.875
246.0, -177365.49554651923, -181825.94261478694, -179254.64263613735, -178995.27299347796, -181494.95798289275, -183053.67923422807, -185339.7038983946, 187500.0, 0.028, -0.014, 1.004, 192.0, 0.0, 224.0, 255.0, 144.0, 31.0, 96.0, 0.0, 0.0, 0.0, 1.6896028798754158E9, 0.0, 2023-07-17 16:07:59.875
247.0, -177386.72970375177, -181856.83272562418, -179259.89529608435, -178976.20695545757, -181507.07262838754, -183063.22342911048, -185323.5435871534, 187500.0, 0.028, -0.014, 1.004, 192.0, 0.0, 0.0, 0.0, 0.0, 0.0, 0.0, 0.0, 0.0, 0.0, 1.6896028798754623E9, 0.0, 2023-07-17 16:07:59.875
248.0, -177393.79285499966, -181859.31376925873, -179275.89914511432, -178982.86777530526, -181517.60030002598, -183050.97467314897, -185307.40562765667, 187500.0, 0.028, -0.014, 1.004, 192.0, 0.0, 0.0, 0.0, 0.0, 0.0, 0.0, 0.0, 0.0, 0.0, 1.6896028798755057E9, 0.0, 2023-07-17 16:07:59.875
249.0, -177362.79098544014, -181841.41002195003, -179264.052720553, -178982.3983886717, -181498.0425236276, -183042.5033620004, -185316.07810450532, 187500.0, 0.028, -0.014, 1.004, 192.0, 0.0, 0.0, 0.0, 0.0, 0.0, 0.0, 0.0, 0.0, 0.0, 1.6896028798755488E9, 0.0, 2023-07-17 16:07:59.875
250.0, -177382.43816881636, -181836.0679550252, -179241.43275516425, -178970.79783329938, -181512.97348892374, -183069.43721406904, -185311.87597654772, 187500.0, 0.028, -0.014, 1.004, 192.0, 0.0, 0.0, 0.0, 0.0, 0.0, 0.0, 0.0, 0.0, 0.0, 1.6896028798755903E9, 0.0, 2023-07-17 16:07:59.875
251.0, -177391.82590148758, -181834.99507129134, -179235.7554120726, -178985.2370602175, -181513.84520695749, -183069.54897279132, -185290.21713617054, 187500.0, 0.028, -0.014, 1.004, 192.0, 0.0, 0.0, 0.0, 0.0, 0.0, 0.0, 0.0, 0.0, 0.0, 1.6896028798756292E9, 0.0, 2023-07-17 16:07:59.875
252.0, -177401.07952369208, -181830.8823503116, -179228.1111154689, -178977.03397000243, -181519.65666051587, -183086.9162782331, -185290.99944722647, 187500.0, 0.028, -0.014, 1.004, 192.0, 0.0, 0.0, 0.0, 0.0, 0.0, 0.0, 0.0, 0.0, 0.0, 1.6896028798757846E9, 0.0, 2023-07-17 16:07:59.875
253.0, -177417.91038726692, -181830.79294333374, -179218.63397581983, -178979.02327525895, -181533.62650080046, -183077.99793219543, -185271.6428365282, 187500.0, 0.028, -0.014, 1.004, 192.0, 0.0, 0.0, 0.0, 0.0, 0.0, 0.0, 0.0, 0.0, 0.0, 1.6896028798758268E9, 0.0, 2023-07-17 16:07:59.875
254.0, -177399.96193646934, -181818.7230013279, -179221.53970259902, -178976.85515604677, -181507.67612548784, -183057.03199589634, -185275.59909529675, 187500.0, 0.028, -0.014, 1.004, 192.0, 0.0, 0.0, 0.0, 0.0, 0.0, 0.0, 0.0, 0.0, 0.0, 1.689602879875868E9, 0.0, 2023-07-17 16:07:59.875
255.0, -177455.43896620738, -181829.78711483325, -179207.5028070811, -178961.45480411706, -181515.85686395847, -183077.03680718385, -185283.57866806732, 187500.0, 0.028, -0.014, 1.004, 192.0, 0.0, 0.0, 0.0, 0.0, 0.0, 0.0, 0.0, 0.0, 0.0, 1.6896028798759103E9, 0.0, 2023-07-17 16:07:59.875
0.0, -177487.7372369453, -181850.01544356532, -179190.85075746189, -178922.33925132029, -181540.3990793704, -183071.98531293694, -185255.63898749818, 187500.0, 0.02, -0.016, 1.002, 192.0, 0.0, 160.0, 255.0, 128.0, 31.0, 80.0, 0.0, 0.0, 0.0, 1.6896028798759563E9, 0.0, 2023-07-17 16:07:59.875
1.0, -177478.46126299637, -181855.2234000234, -179211.61552806088, -178931.6822805026, -181543.72948929423, -183059.93772267553, -185236.48354249998, 187500.0, 0.02, -0.016, 1.002, 192.0, 0.0, 0.0, 0.0, 0.0, 0.0, 0.0, 0.0, 0.0, 0.0, 1.689602879876001E9, 0.0, 2023-07-17 16:07:59.876
2.0, -177465.49725121228, -181863.51589721633, -179229.07224048045, -178961.32069365034, -181525.7363350077, -183069.2584001134, -185263.90913294663, 187500.0, 0.02, -0.016, 1.002, 192.0, 0.0, 0.0, 0.0, 0.0, 0.0, 0.0, 0.0, 0.0, 0.0, 1.6896028798760448E9, 0.0, 2023-07-17 16:07:59.876
3.0, -177486.0385043667, -181861.43718498197, -179224.9148160118, -178961.36539713925, -181494.75681719265, -183091.78895852435, -185270.30173186085, 187500.0, 0.02, -0.016, 1.002, 192.0, 0.0, 0.0, 0.0, 0.0, 0.0, 0.0, 0.0, 0.0, 0.0, 1.6896028798760853E9, 0.0, 2023-07-17 16:07:59.876
4.0, -177522.15892340647, -181834.59273989114, -179188.61558301636, -178914.76200994995, -181513.59933776848, -183089.91141199012, -185253.5826270083, 187500.0, 0.02, -0.016, 1.002, 192.0, 0.0, 0.0, 0.0, 0.0, 0.0, 0.0, 0.0, 0.0, 0.0, 1.6896028798761272E9, 0.0, 2023-07-17 16:07:59.876
5.0, -177565.18603148294, -181824.33328918618, -179182.35709456887, -178876.1158437867, -181554.36891965498, -183098.5168336054, -185243.2784728144, 187500.0, 0.02, -0.016, 1.002, 192.0, 0.0, 0.0, 0.0, 0.0, 0.0, 0.0, 0.0, 0.0, 0.0, 1.6896028798761683E9, 0.0, 2023-07-17 16:07:59.876
6.0, -177599.98769759986, -181813.24682393632, -179143.66622491673, -178850.92542778558, -181569.90338205142, -183102.5177958629, -185230.2697575414, 187500.0, 0.02, -0.016, 1.002, 192.0, 0.0, 0.0, 0.0, 0.0, 0.0, 0.0, 0.0, 0.0, 0.0, 1.6896028798762088E9, 0.0, 2023-07-17 16:07:59.876
7.0, -177612.79524717276, -181798.44996910694, -179113.35725943535, -178855.35107318772, -181533.4923903337, -183119.14749373766, -185228.1686935626, 187500.0, 0.02, -0.016, 1.002, 192.0, 0.0, 0.0, 0.0, 0.0, 0.0, 0.0, 0.0, 0.0, 0.0, 1.6896028798762522E9, 0.0, 2023-07-17 16:07:59.876
8.0, -177604.21217730193, -181801.22158541938, -179127.0812305309, -178874.23829725245, -181514.91809069135, -183140.15813352563, -185259.1258596332, 187500.0, 0.02, -0.016, 1.002, 192.0, 0.0, 0.0, 0.0, 0.0, 0.0, 0.0, 0.0, 0.0, 0.0, 1.689602879876294E9, 0.0, 2023-07-17 16:07:59.876
9.0, -177549.31629291968, -181798.74054178485, -179144.91792260623, -178899.11578883123, -181506.80440745407, -183114.43127565758, -185301.50476712047, 187500.0, 0.02, -0.016, 1.002, 192.0, 0.0, 0.0, 0.0, 0.0, 0.0, 0.0, 0.0, 0.0, 0.0, 1.6896028798763363E9, 0.0, 2023-07-17 16:07:59.876
10.0, -177511.11716164555, -181807.79299828925, -179171.56120199696, -178936.8455334718, -181506.08915163152, -183095.92403124858, -185352.22087528955, 187500.0, 0.026000000000000002, -0.012, 1.006, 192.0, 0.0, 208.0, 255.0, 160.0, 31.0, 112.0, 0.0, 0.0, 0.0, 1.68960287987638E9, 0.0, 2023-07-17 16:07:59.876
11.0, -177466.90541111297, -181804.97667848787, -179185.35222832588, -178956.0903854478, -181495.44972127076, -183072.722920504, -185392.54342228692, 187500.0, 0.026000000000000002, -0.012, 1.006, 192.0, 0.0, 0.0, 0.0, 0.0, 0.0, 0.0, 0.0, 0.0, 0.0, 1.6896028798764768E9, 0.0, 2023-07-17 16:07:59.876
12.0, -177434.89771305295, -181802.18271043096, -179199.65734477728, -178979.91734503716, -181496.589660238, -183051.44405978252, -185430.65314658324, 187500.0, 0.026000000000000002, -0.012, 1.006, 192.0, 0.0, 0.0, 0.0, 0.0, 0.0, 0.0, 0.0, 0.0, 0.0, 1.689602879876522E9, 0.0, 2023-07-17 16:07:59.876
13.0, -177428.59452111658, -181809.58113784567, -179223.93133925574, -178999.47512143556, -181516.41565756986, -183043.06215561178, -185437.20220770864, 187500.0, 0.026000000000000002, -0.012, 1.006, 192.0, 0.0, 0.0, 0.0, 0.0, 0.0, 0.0, 0.0, 0.0, 0.0, 1.689602879876567E9, 0.0, 2023-07-17 16:07:59.876
14.0, -177420.30202392366, -181824.64621360853, -179243.98085403215, -178974.30705717887, -181539.01327121418, -183028.24294903793, -185398.8689659678, 187500.0, 0.026000000000000002, -0.012, 1.006, 192.0, 0.0, 0.0, 0.0, 0.0, 0.0, 0.0, 0.0, 0.0, 0.0, 1.689602879876611E9, 0.0, 2023-07-17 16:07:59.876
15.0, -177438.47399216582, -181850.95421683244, -179249.16645874578, -178905.19546332306, -181553.4077946434, -183008.50635868387, -185352.6008549453, 187500.0, 0.026000000000000002, -0.012, 1.006, 192.0, 0.0, 0.0, 0.0, 0.0, 0.0, 0.0, 0.0, 0.0, 0.0, 1.689602879876655E9, 0.0, 2023-07-17 16:07:59.876
16.0, -177481.16582407546, -181874.4235485105, -179279.02838933808, -178875.28882924185, -181577.70414086632, -183012.73083838593, -185323.5882906423, 187500.0, 0.026000000000000002, -0.012, 1.006, 192.0, 0.0, 0.0, 0.0, 0.0, 0.0, 0.0, 0.0, 0.0, 0.0, 1.6896028798766997E9, 0.0, 2023-07-17 16:07:59.876
17.0, -177488.43014102342, -181875.74230143338, -179295.45692151273, -178888.63282068167, -181589.23764100525, -182998.2916114678, -185283.24339190047, 187500.0, 0.026000000000000002, -0.012, 1.006, 192.0, 0.0, 0.0, 0.0, 0.0, 0.0, 0.0, 0.0, 0.0, 0.0, 1.689602879876744E9, 0.0, 2023-07-17 16:07:59.876
18.0, -177473.4321204939, -181867.04747284026, -179296.23923256865, -178900.76981792093, -181589.57291717207, -182974.7775763008, -185235.50006574395, 187500.0, 0.026000000000000002, -0.012, 1.006, 192.0, 0.0, 0.0, 0.0, 0.0, 0.0, 0.0, 0.0, 0.0, 0.0, 1.6896028798767884E9, 0.0, 2023-07-17 16:07:59.876
19.0, -177473.49917572728, -181864.16409780554, -179310.85727344244, -178916.43839078408, -181602.33576325607, -182964.09344245118, -185198.03854203684, 187500.0, 0.026000000000000002, -0.012, 1.006, 192.0, 0.0, 0.0, 0.0, 0.0, 0.0, 0.0, 0.0, 0.0, 0.0, 1.6896028798768332E9, 0.0, 2023-07-17 16:07:59.876
20.0, -177459.28346625372, -181861.16896404853, -179321.9213869478, -178933.3810130812, -181604.2133097903, -182948.53662831028, -185162.81219277528, 187500.0, 0.03, -0.016, 1.002, 192.0, 0.0, 240.0, 255.0, 128.0, 31.0, 80.0, 0.0, 0.0, 0.0, 1.6896028798768775E9, 0.0, 2023-07-17 16:07:59.876
21.0, -177433.5789601301, -181860.5207634593, -179327.1293434059, -178957.49854534847, -181592.76921662918, -182942.25578811835, -185180.24655345042, 187500.0, 0.03, -0.016, 1.002, 192.0, 0.0, 0.0, 0.0, 0.0, 0.0, 0.0, 0.0, 0.0, 0.0, 1.689602879876924E9, 0.0, 2023-07-17 16:07:59.876
22.0, -177415.11641921, -181864.85700188365, -179329.54333180707, -178982.42074041616, -181574.48548966474, -182987.942753785, -185219.09388531375, 187500.0, 0.03, -0.016, 1.002, 192.0, 0.0, 0.0, 0.0, 0.0, 0.0, 0.0, 0.0, 0.0, 0.0, 1.689602879876968E9, 0.0, 2023-07-17 16:07:59.876
23.0, -177427.40987866043, -181858.79967913625, -179317.38398282338, -178975.15642346817, -181544.13182069443, -183040.58111197726, -185234.62834771018, 187500.0, 0.03, -0.016, 1.002, 192.0, 0.0, 0.0, 0.0, 0.0, 0.0, 0.0, 0.0, 0.0, 0.0, 1.6896028798770125E9, 0.0, 2023-07-17 16:07:59.877
24.0, -177485.52441424422, -181845.61214990763, -179275.09448231393, -178941.60645504075, -181562.63906510343, -183065.2574378559, -185236.8635221557, 187500.0, 0.03, -0.016, 1.002, 192.0, 0.0, 0.0, 0.0, 0.0, 0.0, 0.0, 0.0, 0.0, 0.0, 1.6896028798770568E9, 0.0, 2023-07-17 16:07:59.877
25.0, -177534.02769971226, -181832.0222892788, -179217.561092086, -178905.1284080897, -181596.94899284234, -183069.34780709122, -185219.60797543623, 187500.0, 0.03, -0.016, 1.002, 192.0, 0.0, 0.0, 0.0, 0.0, 0.0, 0.0, 0.0, 0.0, 0.0, 1.689602879877144E9, 0.0, 2023-07-17 16:07:59.877
26.0, -177578.28415373375, -181823.6180333636, -179175.36099855436, -178887.51523345892, -181613.04224885014, -183072.07471991476, -185207.82860610826, 187500.0, 0.03, -0.016, 1.002, 192.0, 0.0, 0.0, 0.0, 0.0, 0.0, 0.0, 0.0, 0.0, 0.0, 1.6896028798771892E9, 0.0, 2023-07-17 16:07:59.877
27.0, -177593.8186161302, -181821.1593414735, -179158.6418937018, -178897.35000101925, -181595.33966724155, -183090.89488874614, -185220.23382428096, 187500.0, 0.03, -0.016, 1.002, 192.0, 0.0, 0.0, 0.0, 0.0, 0.0, 0.0, 0.0, 0.0, 0.0, 1.6896028798772328E9, 0.0, 2023-07-17 16:07:59.877
28.0, -177567.19768848392, -181834.34687070214, -179192.95182144069, -178932.5763502808, -181601.3075830111, -183096.79574928235, -185234.5165889879, 187500.0, 0.03, -0.016, 1.002, 192.0, 0.0, 0.0, 0.0, 0.0, 0.0, 0.0, 0.0, 0.0, 0.0, 1.689602879877277E9, 0.0, 2023-07-17 16:07:59.877
29.0, -177553.6972348329, -181838.19137074845, -179200.3502488554, -178923.79211470988, -181618.58548147508, -183085.12813867666, -185213.03656256635, 187500.0, 0.03, -0.016, 1.002, 192.0, 0.0, 0.0, 0.0, 0.0, 0.0, 0.0, 0.0, 0.0, 0.0, 1.68960287987732E9, 0.0, 2023-07-17 16:07:59.877
30.0, -177571.55627865272, -181814.2079489479, -179150.8411348869, -178878.8204048658, -181626.78857169015, -183069.34780709122, -185184.47103315248, 187500.0, 0.034, -0.01, 1.004, 192.0, 1.0, 16.0, 255.0, 176.0, 31.0, 96.0, 0.0, 0.0, 0.0, 1.689602879877358E9, 0.0, 2023-07-17 16:07:59.877
31.0, -177606.98379361437, -181805.17784418797, -179122.2309019841, -178883.44721596804, -181598.98300158777, -183087.09509218874, -185180.4477191505, 187500.0, 0.034, -0.01, 1.004, 192.0, 0.0, 0.0, 0.0, 0.0, 0.0, 0.0, 0.0, 0.0, 0.0, 1.6896028798774004E9, 0.0, 2023-07-17 16:07:59.877
32.0, -177608.54841572625, -181805.7589895438, -179126.65654738626, -178901.99916386596, -181573.74788209773, -183119.10279024873, -185208.09682704174, 187500.0, 0.034, -0.01, 1.004, 192.0, 0.0, 0.0, 0.0, 0.0, 0.0, 0.0, 0.0, 0.0, 0.0, 1.6896028798774407E9, 0.0, 2023-07-17 16:07:59.877
33.0, -177538.27453115876, -181790.82802424766, -179134.30084398997, -178911.36454479274, -181550.9043992644, -183092.07953120227, -185245.4242402821, 187500.0, 0.034, -0.01, 1.004, 192.0, 0.0, 0.0, 0.0, 0.0, 0.0, 0.0, 0.0, 0.0, 0.0, 1.68960287987748E9, 0.0, 2023-07-17 16:07:59.877
34.0, -177502.8023127082, -181798.87465225157, -179172.11999560834, -178947.46261208804, -181563.9131145374, -183080.68014153006, -185282.25991514444, 187500.0, 0.034, -0.01, 1.004, 192.0, 0.0, 0.0, 0.0, 0.0, 0.0, 0.0, 0.0, 0.0, 0.0, 1.6896028798775203E9, 0.0, 2023-07-17 16:07:59.877
35.0, -177471.15224255947, -181791.38681785905, -179190.76135048407, -178957.85617325976, -181568.11524249497, -183054.28273132836, -185248.91111241712, 187500.0, 0.034, -0.01, 1.004, 192.0, 0.0, 0.0, 0.0, 0.0, 0.0, 0.0, 0.0, 0.0, 0.0, 1.6896028798775592E9, 0.0, 2023-07-17 16:07:59.877
36.0, -177455.88600109649, -181800.57338483018, -179208.37452511484, -178974.75409206797, -181579.42522518936, -183042.68217595606, -185215.85288236773, 187500.0, 0.034, -0.01, 1.004, 192.0, 0.0, 0.0, 0.0, 0.0, 0.0, 0.0, 0.0, 0.0, 0.0, 1.6896028798776E9, 0.0, 2023-07-17 16:07:59.877
37.0, -177461.04925406567, -181831.79877183423, -179227.21704569066, -178975.02231300145, -181595.94316434185, -183032.4003735066, -185182.39232091812, 187500.0, 0.034, -0.01, 1.004, 192.0, 0.0, 0.0, 0.0, 0.0, 0.0, 0.0, 0.0, 0.0, 0.0, 1.6896028798776407E9, 0.0, 2023-07-17 16:07:59.877
38.0, -177490.71001895788, -181874.11062408815, -179251.7592611026, -178930.11765839072, -181618.4737227528, -183025.94071935903, -185158.47595435096, 187500.0, 0.034, -0.01, 1.004, 192.0, 0.0, 0.0, 0.0, 0.0, 0.0, 0.0, 0.0, 0.0, 0.0, 1.6896028798776817E9, 0.0, 2023-07-17 16:07:59.877
39.0, -177522.11421991757, -181916.35542110866, -179272.68049391278, -178871.39962570663, -181643.64178700946, -183020.53159720084, -185137.13003839614, 187500.0, 0.034, -0.01, 1.004, 192.0, 0.0, 0.0, 0.0, 0.0, 0.0, 0.0, 0.0, 0.0, 0.0, 1.6896028798777256E9, 0.0, 2023-07-17 16:07:59.877
40.0, -177528.59622580963, -181931.55460733827, -179268.83599386647, -178808.2559476204, -181646.30164459965, -182993.10600675418, -185095.0417035868, 187500.0, 0.03, -0.016, 1.012, 192.0, 0.0, 240.0, 255.0, 128.0, 31.0, 160.0, 0.0, 0.0, 0.0, 1.6896028798778613E9, 0.0, 2023-07-17 16:07:59.877
41.0, -177535.14528693503, -181949.90538953608, -179295.322811046, -178824.63977630614, -181668.40751986596, -182993.10600675418, -185080.40131096856, 187500.0, 0.03, -0.016, 1.012, 192.0, 0.0, 0.0, 0.0, 0.0, 0.0, 0.0, 0.0, 0.0, 0.0, 1.6896028798779197E9, 0.0, 2023-07-17 16:07:59.877
42.0, -177532.84305725613, -181959.6060466297, -179308.66680248582, -178850.5007446409, -181677.30351415917, -182980.6337333481, -185056.14966823455, 187500.0, 0.03, -0.016, 1.012, 192.0, 0.0, 0.0, 0.0, 0.0, 0.0, 0.0, 0.0, 0.0, 0.0, 1.6896028798779712E9, 0.0, 2023-07-17 16:07:59.877
43.0, -177530.8537519996, -181958.48845940692, -179328.24693062867, -178874.35005597473, -181687.07122648612, -182971.1789454435, -185033.2614819123, 187500.0, 0.03, -0.016, 1.012, 192.0, 0.0, 0.0, 0.0, 0.0, 0.0, 0.0, 0.0, 0.0, 0.0, 1.6896028798780243E9, 0.0, 2023-07-17 16:07:59.878
44.0, -177507.92086218845, -181945.97148251196, -179341.74738427968, -178895.47245448502, -181691.20629921035, -182959.48898309338, -185008.85337696713, 187500.0, 0.03, -0.016, 1.012, 192.0, 0.0, 0.0, 0.0, 0.0, 0.0, 0.0, 0.0, 0.0, 0.0, 1.689602879878091E9, 0.0, 2023-07-17 16:07:59.878
45.0, -177461.33982674358, -181926.41370611356, -179337.9252359778, -178909.8222744253, -181671.64852281197, -182937.00312817135, -185006.39468507704, 187500.0, 0.03, -0.016, 1.012, 192.0, 0.0, 0.0, 0.0, 0.0, 0.0, 0.0, 0.0, 0.0, 0.0, 1.689602879878147E9, 0.0, 2023-07-17 16:07:59.878
46.0, -177444.6877771244, -181919.88699673262, -179335.9359307213, -178926.4296205556, -181632.622376993, -182957.52202958133, -185043.40917389502, 187500.0, 0.03, -0.016, 1.012, 192.0, 0.0, 0.0, 0.0, 0.0, 0.0, 0.0, 0.0, 0.0, 0.0, 1.6896028798781977E9, 0.0, 2023-07-17 16:07:59.878
47.0, -177489.97241139083, -181919.4399618435, -179313.74064847716, -178932.21872236952, -181610.62826044898, -182989.90970729708, -185058.56365663573, 187500.0, 0.03, -0.016, 1.012, 192.0, 0.0, 0.0, 0.0, 0.0, 0.0, 0.0, 0.0, 0.0, 0.0, 1.6896028798782473E9, 0.0, 2023-07-17 16:07:59.878
48.0, -177536.84401951364, -181906.43124657052, -179262.57750541897, -178926.0272891554, -181576.69831236583, -183000.57148940224, -185051.20993270993, 187500.0, 0.03, -0.016, 1.012, 192.0, 0.0, 0.0, 0.0, 0.0, 0.0, 0.0, 0.0, 0.0, 0.0, 1.6896028798782904E9, 0.0, 2023-07-17 16:07:59.878
49.0, -177594.62327893058, -181912.71208676245, -179250.23934247965, -178948.66960628863, -181539.52736133666, -183034.32262352976, -185069.80658409675, 187500.0, 0.03, -0.016, 1.012, 192.0, 0.0, 0.0, 0.0, 0.0, 0.0, 0.0, 0.0, 0.0, 0.0, 1.6896028798783312E9, 0.0, 2023-07-17 16:07:59.878
50.0, -177597.28313652077, -181905.9842116814, -179245.05373776602, -178958.41496687115, -181504.61393649745, -183070.3089321028, -185088.40323548357, 187500.0, 0.03, -0.016, 1.012, 192.0, 0.0, 240.0, 255.0, 128.0, 31.0, 160.0, 0.0, 0.0, 0.0, 1.6896028798783739E9, 0.0, 2023-07-17 16:07:59.878
51.0, -177556.5135546343, -181904.2854791028, -179252.67568262527, -178975.60345835728, -181492.0969596025, -183128.31170896432, -185127.8093609583, 187500.0, 0.03, -0.016, 1.012, 192.0, 0.0, 0.0, 0.0, 0.0, 0.0, 0.0, 0.0, 0.0, 0.0, 1.6896028798784328E9, 0.0, 2023-07-17 16:07:59.878
52.0, -177492.27464106973, -181881.2184788249, -179228.28992942453, -178973.03300774493, -181464.15727903336, -183122.54495889487, -185148.08239317924, 187500.0, 0.03, -0.016, 1.012, 192.0, 0.0, 0.0, 0.0, 0.0, 0.0, 0.0, 0.0, 0.0, 0.0, 1.6896028798784833E9, 0.0, 2023-07-17 16:07:59.878
53.0, -177448.06289053714, -181865.7287199174, -179219.61745257588, -178979.67147584815, -181444.44304042376, -183153.41271798764, -185173.451623136, 187500.0, 0.03, -0.016, 1.012, 192.0, 0.0, 0.0, 0.0, 0.0, 0.0, 0.0, 0.0, 0.0, 0.0, 1.689602879878532E9, 0.0, 2023-07-17 16:07:59.878
54.0, -177417.68686982238, -181851.91534184403, -179211.9061007388, -178977.1457287247, -181418.29149941105, -183200.73136099952, -185195.28927746884, 187500.0, 0.03, -0.016, 1.012, 192.0, 0.0, 0.0, 0.0, 0.0, 0.0, 0.0, 0.0, 0.0, 0.0, 1.689602879878573E9, 0.0, 2023-07-17 16:07:59.878
55.0, -177464.15614654496, -181849.38959472056, -179203.41243784578, -178966.93098150863, -181424.95231925874, -183228.29106191293, -185202.2630217389, 187500.0, 0.03, -0.016, 1.012, 192.0, 0.0, 0.0, 0.0, 0.0, 0.0, 0.0, 0.0, 0.0, 0.0, 1.689602879878699E9, 0.0, 2023-07-17 16:07:59.878
56.0, -177516.63804252603, -181838.88427482656, -179166.57676298343, -178928.4859810455, -181471.6227616814, -183228.91691075766, -185194.88694606864, 187500.0, 0.03, -0.016, 1.012, 192.0, 0.0, 0.0, 0.0, 0.0, 0.0, 0.0, 0.0, 0.0, 0.0, 1.6896028798787405E9, 0.0, 2023-07-17 16:07:59.878
57.0, -177549.47275513088, -181818.0077455053, -179104.17069246422, -178897.35000101925, -181502.06583762955, -183217.18224491863, -185177.83256504926, 187500.0, 0.03, -0.016, 1.012, 192.0, 0.0, 0.0, 0.0, 0.0, 0.0, 0.0, 0.0, 0.0, 0.0, 1.689602879878784E9, 0.0, 2023-07-17 16:07:59.878
58.0, -177575.15490951002, -181807.48007386687, -179083.94236373215, -178895.89713762965, -181497.6401922274, -183219.23860540852, -185174.8597830367, 187500.0, 0.03, -0.016, 1.012, 192.0, 0.0, 0.0, 0.0, 0.0, 0.0, 0.0, 0.0, 0.0, 0.0, 1.6896028798788283E9, 0.0, 2023-07-17 16:07:59.878
59.0, -177606.78262791428, -181796.08068419466, -179091.05021846894, -178890.19744279355, -181466.6383226679, -183252.92268430267, -185190.9530390445, 187500.0, 0.03, -0.016, 1.012, 192.0, 0.0, 0.0, 0.0, 0.0, 0.0, 0.0, 0.0, 0.0, 0.0, 1.6896028798788736E9, 0.0, 2023-07-17 16:07:59.878
60.0, -177643.9759306879, -181797.26532665078, -179086.51281434452, -178890.26449802693, -181467.35357849047, -183279.1189288043, -185197.8597280812, 187500.0, 0.032, -0.01, 1.008, 192.0, 1.0, 0.0, 255.0, 176.0, 31.0, 128.0, 0.0, 0.0, 0.0, 1.689602879878916E9, 0.0, 2023-07-17 16:07:59.878
61.0, -177675.26837292535, -181789.79984400273, -179053.54399127295, -178877.38989322065, -181503.58575625252, -183277.64371367023, -185189.94721054402, 187500.0, 0.032, -0.01, 1.008, 192.0, 0.0, 0.0, 0.0, 0.0, 0.0, 0.0, 0.0, 0.0, 0.0, 1.6896028798789558E9, 0.0, 2023-07-17 16:07:59.878
62.0, -177692.3451056892, -181771.67257924945, -179016.32833675484, -178861.49780291293, -181499.5400905061, -183268.4571466991, -185176.58086735976, 187500.0, 0.032, -0.01, 1.008, 192.0, 0.0, 0.0, 0.0, 0.0, 0.0, 0.0, 0.0, 0.0, 0.0, 1.689602879878994E9, 0.0, 2023-07-17 16:07:59.878
63.0, -177711.58995766522, -181766.19640185792, -179016.44009547713, -178865.94580005953, -181460.51394468715, -183270.17823102215, -185177.11730922668, 187500.0, 0.032, -0.01, 1.008, 192.0, 0.0, 0.0, 0.0, 0.0, 0.0, 0.0, 0.0, 0.0, 0.0, 1.6896028798790329E9, 0.0, 2023-07-17 16:07:59.879
64.0, -177738.52380973386, -181764.38591055703, -179024.41966824766, -178866.25872448192, -181429.06504023852, -183300.71071394812, -185192.29414371183, 187500.0, 0.032, -0.01, 1.008, 192.0, 0.0, 0.0, 0.0, 0.0, 0.0, 0.0, 0.0, 0.0, 0.0, 1.6896028798790717E9, 0.0, 2023-07-17 16:07:59.879
65.0, -177767.64813275912, -181765.72701522434, -179016.9541855996, -178853.04884350882, -181427.43336289327, -183325.18587412668, -185196.63038213615, 187500.0, 0.032, -0.01, 1.008, 192.0, 0.0, 0.0, 0.0, 0.0, 0.0, 0.0, 0.0, 0.0, 0.0, 1.6896028798791146E9, 0.0, 2023-07-17 16:07:59.879
66.0, -177781.0591794323, -181751.06427086168, -178983.31481019437, -178837.08969796775, -181407.69677253923, -183305.27046981698, -185174.9491900145, 187500.0, 0.032, -0.01, 1.008, 192.0, 0.0, 0.0, 0.0, 0.0, 0.0, 0.0, 0.0, 0.0, 0.0, 1.6896028798791533E9, 0.0, 2023-07-17 16:07:59.879
67.0, -177787.58588881325, -181750.46077376138, -178973.74826356748, -178849.94195102956, -181390.8659089644, -183309.24908033005, -185185.7003790975, 187500.0, 0.032, -0.01, 1.008, 192.0, 0.0, 0.0, 0.0, 0.0, 0.0, 0.0, 0.0, 0.0, 0.0, 1.6896028798791912E9, 0.0, 2023-07-17 16:07:59.879
68.0, -177740.89309464613, -181767.26928559176, -179011.79093263042, -178868.7621198609, -181414.96108948722, -183295.83803365685, -185200.00549554892, 187500.0, 0.032, -0.01, 1.008, 192.0, 0.0, 0.0, 0.0, 0.0, 0.0, 0.0, 0.0, 0.0, 0.0, 1.6896028798792372E9, 0.0, 2023-07-17 16:07:59.879
69.0, -177715.23329201143, -181783.54135555524, -179040.91525565568, -178848.84671555125, -181426.13696171486, -183278.269562515, -185182.7499488294, 187500.0, 0.032, -0.01, 1.008, 192.0, 0.0, 0.0, 0.0, 0.0, 0.0, 0.0, 0.0, 0.0, 0.0, 1.689602879879293E9, 0.0, 2023-07-17 16:07:59.879
70.0, -177714.74155363342, -181803.27794590927, -179064.94338094516, -178869.85735533922, -181429.35561291644, -183274.44741421312, -185204.02880955086, 187500.0, 0.034, -0.008, 1.008, 192.0, 1.0, 16.0, 255.0, 192.0, 31.0, 128.0, 0.0, 0.0, 0.0, 1.6896028798795407E9, 0.0, 2023-07-17 16:07:59.879
71.0, -177666.8864687546, -181806.4518936219, -179070.4642618256, -178869.5667826613, -181428.21567394922, -183239.0422509959, -185202.88887058364, 187500.0, 0.034, -0.008, 1.008, 192.0, 0.0, 0.0, 0.0, 0.0, 0.0, 0.0, 0.0, 0.0, 0.0, 1.6896028798796024E9, 0.0, 2023-07-17 16:07:59.879
72.0, -177645.60760803314, -181808.3070884117, -179071.49244207054, -178882.26257351192, -181430.20497920574, -183237.61173935077, -185212.65658291063, 187500.0, 0.034, -0.008, 1.008, 192.0, 0.0, 0.0, 0.0, 0.0, 0.0, 0.0, 0.0, 0.0, 0.0, 1.689602879879655E9, 0.0, 2023-07-17 16:07:59.879
73.0, -177625.1334101121, -181824.04271650824, -179099.54388136195, -178889.66100092663, -181461.1174417874, -183228.55928284637, -185223.36306850472, 187500.0, 0.034, -0.008, 1.008, 192.0, 0.0, 0.0, 0.0, 0.0, 0.0, 0.0, 0.0, 0.0, 0.0, 1.6896028798797123E9, 0.0, 2023-07-17 16:07:59.879
74.0, -177643.4841923099, -181821.3158036847, -179096.63815458276, -178892.38791375016, -181477.09893907298, -183227.86637876826, -185220.01030683643, 187500.0, 0.034, -0.008, 1.008, 192.0, 0.0, 0.0, 0.0, 0.0, 0.0, 0.0, 0.0, 0.0, 0.0, 1.68960287987977E9, 0.0, 2023-07-17 16:07:59.879
75.0, -177595.80792138673, -181794.5607655717, -179083.2718113985, -178891.80676839434, -181457.0270725521, -183207.7051052696, -185242.85378966975, 187500.0, 0.034, -0.008, 1.008, 192.0, 0.0, 0.0, 0.0, 0.0, 0.0, 0.0, 0.0, 0.0, 0.0, 1.6896028798798363E9, 0.0, 2023-07-17 16:07:59.879
76.0, -177532.17250492246, -181788.01170444628, -179107.07641924339, -178916.75131520646, -181458.18936326378, -183177.731415955, -185291.20061292656, 187500.0, 0.034, -0.008, 1.008, 192.0, 0.0, 0.0, 0.0, 0.0, 0.0, 0.0, 0.0, 0.0, 0.0, 1.6896028798798988E9, 0.0, 2023-07-17 16:07:59.879
77.0, -177475.4437774949, -181779.07100666416, -179120.55452114996, -178929.64827175718, -181455.0824707845, -183145.32138649482, -185330.6514418902, 187500.0, 0.034, -0.008, 1.008, 192.0, 0.0, 0.0, 0.0, 0.0, 0.0, 0.0, 0.0, 0.0, 0.0, 1.6896028798799672E9, 0.0, 2023-07-17 16:07:59.879
78.0, -177443.77135560173, -181778.24399211933, -179146.30373076248, -178950.1001179338, -181460.40218596486, -183120.4662466605, -185378.57358200237, 187500.0, 0.034, -0.008, 1.008, 192.0, 0.0, 0.0, 0.0, 0.0, 0.0, 0.0, 0.0, 0.0, 0.0, 1.6896028798800352E9, 0.0, 2023-07-17 16:07:59.880
79.0, -177417.06102097762, -181779.04865491972, -179159.31244603544, -178966.90862976416, -181450.7238806157, -183116.3758774252, -185408.63667829474, 187500.0, 0.034, -0.008, 1.008, 192.0, 0.0, 0.0, 0.0, 0.0, 0.0, 0.0, 0.0, 0.0, 0.0, 1.689602879880098E9, 0.0, 2023-07-17 16:07:59.880
80.0, -177426.5828641156, -181762.910695423, -179139.7770213815, -178940.22064688453, -181421.0184122346, -183139.44287770306, -185399.7183322571, 187500.0, 0.032, -0.008, 1.008, 192.0, 1.0, 0.0, 255.0, 192.0, 31.0, 128.0, 0.0, 0.0, 0.0, 1.6896028798801806E9, 0.0, 2023-07-17 16:07:59.880
81.0, -177483.35629503208, -181751.93598889542, -179122.00738453955, -178904.88253890068, -181459.95515107576, -183157.77130815643, -185390.3082478414, 187500.0, 0.032, -0.008, 1.008, 192.0, 0.0, 0.0, 0.0, 0.0, 0.0, 0.0, 0.0, 0.0, 0.0, 1.6896028798802564E9, 0.0, 2023-07-17 16:07:59.880
82.0, -177552.6467028435, -181768.31981758116, -179141.60986442683, -178894.48897772896, -181518.27085235965, -183177.26202932146, -185389.83886120783, 187500.0, 0.032, -0.008, 1.008, 192.0, 0.0, 0.0, 0.0, 0.0, 0.0, 0.0, 0.0, 0.0, 0.0, 1.689602879880326E9, 0.0, 2023-07-17 16:07:59.880
83.0, -177576.87599383306, -181763.9612274124, -179123.8849310738, -178900.25572779845, -181509.15134062187, -183182.06765437935, -185392.72223624258, 187500.0, 0.032, -0.008, 1.008, 192.0, 0.0, 0.0, 0.0, 0.0, 0.0, 0.0, 0.0, 0.0, 0.0, 1.6896028798803933E9, 0.0, 2023-07-17 16:07:59.880
84.0, -177538.2074759254, -181759.4014715435, -179131.7303933776, -178916.66190822865, -181495.47207301523, -183163.56040997035, -185416.2139196651, 187500.0, 0.032, -0.008, 1.008, 192.0, 0.0, 0.0, 0.0, 0.0, 0.0, 0.0, 0.0, 0.0, 0.0, 1.6896028798804338E9, 0.0, 2023-07-17 16:07:59.880
85.0, -177496.18619634942, -181762.1507361115, -179149.9917685976, -178939.95242595108, -181492.00755262465, -183138.2358835025, -185454.34599570587, 187500.0, 0.032, -0.008, 1.008, 192.0, 0.0, 0.0, 0.0, 0.0, 0.0, 0.0, 0.0, 0.0, 0.0, 1.6896028798810446E9, 0.0, 2023-07-17 16:07:59.881
86.0, -177441.69264336737, -181746.1468870815, -179150.9975970981, -178948.0884609328, -181470.8404506255, -183095.40994112613, -185478.5305832065, 187500.0, 0.032, -0.008, 1.008, 192.0, 0.0, 0.0, 0.0, 0.0, 0.0, 0.0, 0.0, 0.0, 0.0, 1.6896028798812344E9, 0.0, 2023-07-17 16:07:59.881
87.0, -177407.9638609843, -181739.62017770056, -179151.55639070945, -178952.51410633494, -181446.74527010266, -183086.0669119438, -185491.02520835702, 187500.0, 0.032, -0.008, 1.008, 192.0, 0.0, 0.0, 0.0, 0.0, 0.0, 0.0, 0.0, 0.0, 0.0, 1.6896028798813145E9, 0.0, 2023-07-17 16:07:59.881
88.0, -177394.19518639985, -181732.80289564168, -179145.25319877308, -178952.58116156832, -181417.39742963284, -183122.58966238378, -185492.92510663572, 187500.0, 0.032, -0.008, 1.008, 192.0, 0.0, 0.0, 0.0, 0.0, 0.0, 0.0, 0.0, 0.0, 0.0, 1.6896028798813543E9, 0.0, 2023-07-17 16:07:59.881
89.0, -177443.59254164607, -181740.8942271345, -179147.0860418184, -178963.33235065133, -181395.82799623348, -183163.94038962608, -185498.08835960488, 187500.0, 0.032, -0.008, 1.008, 192.0, 0.0, 0.0, 0.0, 0.0, 0.0, 0.0, 0.0, 0.0, 0.0, 1.6896028798814025E9, 0.0, 2023-07-17 16:07:59.881
90.0, -177489.145396846, -181729.6960031624, -179133.51853293402, -178938.90189396168, -181373.94563841174, -183184.5934015028, -185484.69966467615, 187500.0, 0.026000000000000002, -0.01, 1.008, 192.0, 0.0, 208.0, 255.0, 176.0, 31.0, 128.0, 0.0, 0.0, 0.0, 1.6896028798814633E9, 0.0, 2023-07-17 16:07:59.881
91.0, -177538.36393813658, -181726.43264847193, -179101.75670406304, -178903.51908248893, -181411.60832781892, -183196.50688129748, -185467.24295225658, 187500.0, 0.026000000000000002, -0.01, 1.008, 192.0, 0.0, 0.0, 0.0, 0.0, 0.0, 0.0, 0.0, 0.0, 0.0, 1.6896028798815477E9, 0.0, 2023-07-17 16:07:59.881
92.0, -177585.03438055926, -181732.98170959734, -179073.68291302718, -178906.73773369048, -181425.66757508132, -183204.1511779012, -185452.5131526605, 187500.0, 0.026000000000000002, -0.01, 1.008, 192.0, 0.0, 0.0, 0.0, 0.0, 0.0, 0.0, 0.0, 0.0, 0.0, 1.6896028798816116E9, 0.0, 2023-07-17 16:07:59.881
93.0, -177567.3094472062, -181733.3393375086, -179070.2630961255, -178914.6726029721, -181405.9086329828, -183213.6953727836, -185459.1739725082, 187500.0, 0.026000000000000002, -0.01, 1.008, 192.0, 0.0, 0.0, 0.0, 0.0, 0.0, 0.0, 0.0, 0.0, 0.0, 1.6896028798816752E9, 0.0, 2023-07-17 16:07:59.881
94.0, -177513.68761225793, -181739.150791067, -179089.46324461262, -178937.71725150553, -181411.80949351902, -183204.6429162792, -185494.78030142552, 187500.0, 0.026000000000000002, -0.01, 1.008, 192.0, 0.0, 0.0, 0.0, 0.0, 0.0, 0.0, 0.0, 0.0, 0.0, 1.6896028798817437E9, 0.0, 2023-07-17 16:07:59.881
95.0, -177468.85001288058, -181740.8942271345, -179113.96075653564, -178963.57821984033, -181422.15835120183, -183176.45736652106, -185533.06883967743, 187500.0, 0.026000000000000002, -0.01, 1.008, 192.0, 0.0, 0.0, 0.0, 0.0, 0.0, 0.0, 0.0, 0.0, 0.0, 1.689602879881814E9, 0.0, 2023-07-17 16:07:59.881
96.0, -177429.64505310598, -181720.46473270236, -179110.20566346715, -178961.25363841697, -181402.19824340323, -183140.35929922573, -185541.4060403593, 187500.0, 0.026000000000000002, -0.01, 1.008, 192.0, 0.0, 0.0, 0.0, 0.0, 0.0, 0.0, 0.0, 0.0, 0.0, 1.6896028798818853E9, 0.0, 2023-07-17 16:07:59.881
97.0, -177469.56526870315, -181715.74851462228, -179106.49527388756, -178945.07097543133, -181410.49074059617, -183151.5798749423, -185536.8909879793, 187500.0, 0.026000000000000002, -0.01, 1.008, 192.0, 0.0, 0.0, 0.0, 0.0, 0.0, 0.0, 0.0, 0.0, 0.0, 1.6896028798819587E9, 0.0, 2023-07-17 16:07:59.881
98.0, -177526.67397578646, -181716.86610184505, -179082.80242476493, -178912.05744887085, -181464.40314822237, -183161.34758726927, -185526.72094425213, 187500.0, 0.026000000000000002, -0.01, 1.008, 192.0, 0.0, 0.0, 0.0, 0.0, 0.0, 0.0, 0.0, 0.0, 0.0, 1.6896028798820288E9, 0.0, 2023-07-17 16:07:59.882
99.0, -177563.08496750414, -181705.55611915066, -179039.28357831045, -178872.38310246269, -181500.32240156204, -183158.44186049007, -185497.01547587104, 187500.0, 0.026000000000000002, -0.012, 1.01, 192.0, 0.0, 208.0, 255.0, 160.0, 31.0, 144.0, 0.0, 0.0, 0.0, 1.689602879882298E9, 0.0, 2023-07-17 16:07:59.882
100.0, -177608.10138083715, -181711.50168317577, -179017.53533095543, -178861.0731197683, -181531.45838158828, -183167.33785478328, -185477.05536807244, 187500.0, 0.026000000000000002, -0.012, 1.01, 192.0, 0.0, 0.0, 0.0, 0.0, 0.0, 0.0, 0.0, 0.0, 0.0, 1.6896028798823538E9, 0.0, 2023-07-17 16:07:59.882
101.0, -177640.95844518644, -181711.41227619795, -178999.16219701318, -178868.40449194962, -181506.58089000953, -183176.8820496657, -185466.86297260082, 187500.0, 0.026000000000000002, -0.012, 1.01, 192.0, 0.0, 0.0, 0.0, 0.0, 0.0, 0.0, 0.0, 0.0, 0.0, 1.6896028798824017E9, 0.0, 2023-07-17 16:07:59.882
102.0, -177637.2257038624, -181714.5415204217, -179008.61698491778, -178885.3694659912, -181488.1854043228, -183210.85670123776, -185479.44700472915, 187500.0, 0.026000000000000002, -0.012, 1.01, 192.0, 0.0, 0.0, 0.0, 0.0, 0.0, 0.0, 0.0, 0.0, 0.0, 1.6896028798824477E9, 0.0, 2023-07-17 16:07:59.882
103.0, -177565.70012160542, -181710.71937211984, -179030.18641831714, -178899.20519580905, -181478.41769199583, -183220.80322752037, -185508.50427252107, 187500.0, 0.026000000000000002, -0.012, 1.01, 192.0, 0.0, 0.0, 0.0, 0.0, 0.0, 0.0, 0.0, 0.0, 0.0, 1.6896028798824997E9, 0.0, 2023-07-17 16:07:59.882
104.0, -177503.71873423085, -181707.74659010727, -179056.1591453742, -178920.26053908595, -181477.3895117509, -183190.8965934392, -185520.95419418268, 187500.0, 0.026000000000000002, -0.012, 1.01, 192.0, 0.0, 0.0, 0.0, 0.0, 0.0, 0.0, 0.0, 0.0, 0.0, 1.6896028798825493E9, 0.0, 2023-07-17 16:07:59.882
105.0, -177466.34661750158, -181709.2888604747, -179082.53420383148, -178935.7950014824, -181481.65869494184, -183163.85098264826, -185520.1271796378, 187500.0, 0.026000000000000002, -0.012, 1.01, 192.0, 0.0, 0.0, 0.0, 0.0, 0.0, 0.0, 0.0, 0.0, 0.0, 1.6896028803533647E9, 0.0, 2023-07-17 16:08:00.353
106.0, -177441.80440208965, -181719.66006990196, -179108.01519251053, -178964.15936519616, -181485.1902705658, -183147.981244085, -185559.6003603459, 187500.0, 0.026000000000000002, -0.012, 1.01, 192.0, 0.0, 0.0, 0.0, 0.0, 0.0, 0.0, 0.0, 0.0, 0.0, 1.6896028803554091E9, 0.0, 2023-07-17 16:08:00.355
107.0, -177402.4653318483, -181717.71546813435, -179117.09000075937, -178976.63163860224, -181470.8404506255, -183111.05616224481, -185579.91809605577, 187500.0, 0.026000000000000002, -0.012, 1.01, 192.0, 0.0, 0.0, 0.0, 0.0, 0.0, 0.0, 0.0, 0.0, 0.0, 1.689602880355461E9, 0.0, 2023-07-17 16:08:00.355
108.0, -177374.123319879, -181706.56194765115, -179118.29699495996, -178969.61319084326, -181438.20690372074, -183107.0104964984, -185585.41662519178, 187500.0, 0.026000000000000002, -0.012, 1.01, 192.0, 0.0, 0.0, 0.0, 0.0, 0.0, 0.0, 0.0, 0.0, 0.0, 1.6896028803555157E9, 0.0, 2023-07-17 16:08:00.355
109.0, -177412.7247825533, -181703.7456278498, -179111.77028557903, -178947.1496876657, -181431.74724957315, -183141.2757207484, -185578.86756406637, 187500.0, 0.024, -0.008, 1.004, 192.0, 0.0, 192.0, 255.0, 192.0, 31.0, 96.0, 0.0, 0.0, 0.0, 1.689602880355562E9, 0.0, 2023-07-17 16:08:00.355
110.0, -177461.29512325468, -181729.76305839577, -179097.35341040534, -178912.34802154877, -181475.22139253872, -183143.06386030483, -185551.30786315296, 187500.0, 0.024, -0.008, 1.004, 192.0, 0.0, 0.0, 0.0, 0.0, 0.0, 0.0, 0.0, 0.0, 0.0, 1.689602880355615E9, 0.0, 2023-07-17 16:08:00.355
111.0, -177472.8286233936, -181740.6036544566, -179113.73723909108, -178901.52977723238, -181486.46431999974, -183114.45362740202, -185497.95424913816, 187500.0, 0.024, -0.008, 1.004, 192.0, 0.0, 0.0, 0.0, 0.0, 0.0, 0.0, 0.0, 0.0, 0.0, 1.6896028803556638E9, 0.0, 2023-07-17 16:08:00.355
112.0, -177437.11053575404, -181739.66488118947, -179136.20074226867, -178921.6686989866, -181489.6829712013, -183089.93376373456, -185467.0864900454, 187500.0, 0.024, -0.008, 1.004, 192.0, 0.0, 0.0, 0.0, 0.0, 0.0, 0.0, 0.0, 0.0, 0.0, 1.6896028803557034E9, 0.0, 2023-07-17 16:08:00.355
113.0, -177410.6237185745, -181743.2858637912, -179152.67397793222, -178946.27796963192, -181488.47597700072, -183075.5615920498, -185495.36144678135, 187500.0, 0.024, -0.008, 1.004, 192.0, 0.0, 0.0, 0.0, 0.0, 0.0, 0.0, 0.0, 0.0, 0.0, 1.689602880355742E9, 0.0, 2023-07-17 16:08:00.355
114.0, -177401.19128241437, -181747.152715582, -179162.73226293712, -178953.81050751335, -181478.50709897367, -183086.20102241053, -185514.4274848017, 187500.0, 0.024, -0.008, 1.004, 192.0, 0.0, 0.0, 0.0, 0.0, 0.0, 0.0, 0.0, 0.0, 0.0, 1.6896028803559525E9, 0.0, 2023-07-17 16:08:00.355
115.0, -177433.8918845525, -181758.37329129854, -179148.9859400971, -178916.23722508398, -181501.06000912905, -183094.24765041444, -185492.29925779096, 187500.0, 0.024, -0.008, 1.004, 192.0, 0.0, 0.0, 0.0, 0.0, 0.0, 0.0, 0.0, 0.0, 0.0, 1.6896028803559985E9, 0.0, 2023-07-17 16:08:00.355
116.0, -177444.46425967984, -181769.92914318194, -179157.56900996793, -178913.24209132697, -181518.4943698042, -183083.20588865352, -185453.5636846499, 187500.0, 0.024, -0.008, 1.004, 192.0, 0.0, 0.0, 0.0, 0.0, 0.0, 0.0, 0.0, 0.0, 0.0, 1.6896028803560452E9, 0.0, 2023-07-17 16:08:00.356
117.0, -177425.7334978263, -181777.0593496632, -179189.26378360557, -178941.80762074084, -181522.45062857278, -183069.92895244705, -185466.61710341182, 187500.0, 0.024, -0.008, 1.004, 192.0, 0.0, 0.0, 0.0, 0.0, 0.0, 0.0, 0.0, 0.0, 0.0, 1.6896028803560953E9, 0.0, 2023-07-17 16:08:00.356
118.0, -177400.81130275864, -181781.32853285415, -179204.01593494607, -178965.61222858576, -181509.08428538853, -183050.1476586041, -185498.20011832716, 187500.0, 0.024, -0.008, 1.004, 192.0, 0.0, 0.0, 0.0, 0.0, 0.0, 0.0, 0.0, 0.0, 0.0, 1.6896028803561473E9, 0.0, 2023-07-17 16:08:00.356
119.0, -177383.68986650585, -181777.17110838546, -179202.38425760082, -178970.46255713256, -181487.26898280013, -183048.0465946253, -185510.1359498663, 187500.0, 0.03, -0.01, 1.002, 192.0, 0.0, 240.0, 255.0, 176.0, 31.0, 80.0, 0.0, 0.0, 0.0, 1.6896028803562026E9, 0.0, 2023-07-17 16:08:00.356
120.0, -177417.95509075583, -181769.97384667085, -179194.96347844167, -178943.2828358749, -181514.6945732468, -183067.6714262571, -185505.4867870196, 187500.0, 0.03, -0.01, 1.002, 192.0, 0.0, 0.0, 0.0, 0.0, 0.0, 0.0, 0.0, 0.0, 0.0, 1.6896028803562608E9, 0.0, 2023-07-17 16:08:00.356
121.0, -177454.90252434046, -181777.48403280784, -179200.1937866442, -178889.48218697097, -181547.3951753849, -183062.88815294363, -185469.05344355744, 187500.0, 0.03, -0.01, 1.002, 192.0, 0.0, 0.0, 0.0, 0.0, 0.0, 0.0, 0.0, 0.0, 0.0, 1.689602880356314E9, 0.0, 2023-07-17 16:08:00.356
122.0, -177461.16101278795, -181781.3061811097, -179209.26859489307, -178872.53956467385, -181546.97049224027, -183035.68607994154, -185415.43160860916, 187500.0, 0.03, -0.01, 1.002, 192.0, 0.0, 0.0, 0.0, 0.0, 0.0, 0.0, 0.0, 0.0, 0.0, 1.6896028803563845E9, 0.0, 2023-07-17 16:08:00.356
123.0, -177432.90840779644, -181777.1040531521, -179219.63980432032, -178893.23728003947, -181544.57885558353, -183014.72014364245, -185384.27327683847, 187500.0, 0.03, -0.01, 1.002, 192.0, 0.0, 0.0, 0.0, 0.0, 0.0, 0.0, 0.0, 0.0, 0.0, 1.689602880356496E9, 0.0, 2023-07-17 16:08:00.356
124.0, -177411.4283813749, -181781.12736715405, -179231.03919399253, -178914.8290651833, -181537.8062770136, -183019.90574835608, -185407.29557362743, 187500.0, 0.03, -0.01, 1.002, 192.0, 0.0, 0.0, 0.0, 0.0, 0.0, 0.0, 0.0, 0.0, 0.0, 1.6896028803565505E9, 0.0, 2023-07-17 16:08:00.356
125.0, -177445.00070154676, -181788.63755329105, -179230.56980735896, -178916.14781810617, -181519.23197737124, -183070.7559669919, -185424.55112034694, 187500.0, 0.03, -0.01, 1.002, 192.0, 0.0, 0.0, 0.0, 0.0, 0.0, 0.0, 0.0, 0.0, 0.0, 1.689602880356631E9, 0.0, 2023-07-17 16:08:00.356
126.0, -177486.97727763382, -181770.21971585986, -179179.11609162285, -178880.34032348875, -181530.00551819868, -183079.04846418483, -185402.2217276361, 187500.0, 0.03, -0.01, 1.002, 192.0, 0.0, 0.0, 0.0, 0.0, 0.0, 0.0, 0.0, 0.0, 0.0, 1.68960288035669E9, 0.0, 2023-07-17 16:08:00.356
127.0, -177535.21234216838, -181759.1108988656, -179127.79648635347, -178849.29375044035, -181558.39223365692, -183081.90948747512, -185380.6522942367, 187500.0, 0.03, -0.01, 1.002, 192.0, 0.0, 0.0, 0.0, 0.0, 0.0, 0.0, 0.0, 0.0, 0.0, 1.68960288035672E9, 0.0, 2023-07-17 16:08:00.356
128.0, -177570.10341526312, -181755.1099366081, -179101.48848312956, -178845.62806434967, -181532.7994862556, -183091.81131026882, -185374.81848893387, 187500.0, 0.03, -0.01, 1.002, 192.0, 0.0, 0.0, 0.0, 0.0, 0.0, 0.0, 0.0, 0.0, 0.0, 1.689602880356769E9, 0.0, 2023-07-17 16:08:00.356
129.0, -177551.1044324761, -181769.99619841532, -179127.26004448655, -178882.50844270093, -181530.22903564325, -183125.85301707423, -185408.3237538724, 187500.0, 0.03, -0.01, 1.002, 192.0, 0.0, 240.0, 255.0, 176.0, 31.0, 80.0, 0.0, 0.0, 0.0, 1.6896028803568535E9, 0.0, 2023-07-17 16:08:00.356
130.0, -177514.87225471405, -181778.9592479419, -179149.81295464194, -178900.16632082063, -181541.51666659318, -183115.05712450232, -185406.5132625715, 187500.0, 0.03, -0.01, 1.002, 192.0, 0.0, 0.0, 0.0, 0.0, 0.0, 0.0, 0.0, 0.0, 0.0, 1.6896028803568988E9, 0.0, 2023-07-17 16:08:00.356
131.0, -177495.13566436002, -181798.82994876266, -179153.12101282133, -178872.53956467385, -181546.83638177352, -183087.27390614437, -185354.72427066855, 187500.0, 0.03, -0.01, 1.002, 192.0, 0.0, 0.0, 0.0, 0.0, 0.0, 0.0, 0.0, 0.0, 0.0, 1.6896028803569276E9, 0.0, 2023-07-17 16:08:00.356
132.0, -177522.04716468422, -181848.31671098672, -179181.91005967977, -178821.82345650476, -181570.61863787397, -183079.54020256284, -185321.75544759698, 187500.0, 0.03, -0.01, 1.002, 192.0, 0.0, 0.0, 0.0, 0.0, 0.0, 0.0, 0.0, 0.0, 0.0, 1.689602880356976E9, 0.0, 2023-07-17 16:08:00.356
133.0, -177551.39500515402, -181872.9706851209, -179193.82353947446, -178776.80704317178, -181594.6020596745, -183075.1145571607, -185292.09468270477, 187500.0, 0.03, -0.01, 1.002, 192.0, 0.0, 0.0, 0.0, 0.0, 0.0, 0.0, 0.0, 0.0, 0.0, 1.6896028803570051E9, 0.0, 2023-07-17 16:08:00.357
134.0, -177582.06159854672, -181857.30211225775, -179156.0937948339, -178747.5486096798, -181620.5300832427, -183068.8560687132, -185268.1783161376, 187500.0, 0.03, -0.01, 1.002, 192.0, 0.0, 0.0, 0.0, 0.0, 0.0, 0.0, 0.0, 0.0, 0.0, 1.689602880357044E9, 0.0, 2023-07-17 16:08:00.357
135.0, -177615.74567744086, -181844.6733766405, -179114.51955014703, -178727.05206001428, -181651.50960105774, -183070.77831873635, -185254.36493806422, 187500.0, 0.03, -0.01, 1.002, 192.0, 0.0, 0.0, 0.0, 0.0, 0.0, 0.0, 0.0, 0.0, 0.0, 1.6896028803570743E9, 0.0, 2023-07-17 16:08:00.357
136.0, -177650.12266041312, -181839.33130971566, -179081.34956137533, -178726.35915593617, -181655.04117668167, -183084.79286250984, -185247.726469961, 187500.0, 0.03, -0.01, 1.002, 192.0, 0.0, 0.0, 0.0, 0.0, 0.0, 0.0, 0.0, 0.0, 0.0, 1.6896028803571155E9, 0.0, 2023-07-17 16:08:00.357
137.0, -177673.4802333689, -181836.8279143367, -179077.54976481793, -178751.21429577045, -181623.5699204886, -183106.3622959092, -185263.41739456862, 187500.0, 0.03, -0.01, 1.002, 192.0, 0.0, 0.0, 0.0, 0.0, 0.0, 0.0, 0.0, 0.0, 0.0, 1.6896028803571453E9, 0.0, 2023-07-17 16:08:00.357
138.0, -177641.96427368693, -181833.4751526684, -179101.19791045165, -178783.0431798748, -181615.0092023622, -183109.17861571058, -185286.50674659095, 187500.0, 0.03, -0.01, 1.002, 192.0, 0.0, 0.0, 0.0, 0.0, 0.0, 0.0, 0.0, 0.0, 0.0, 1.6896028803571887E9, 0.0, 2023-07-17 16:08:00.357
139.0, -177600.9711743559, -181830.10003925563, -179125.9859950526, -178805.7078487525, -181617.110266341, -183085.44106309905, -185256.15307762063, 187500.0, 0.032, -0.01, 1.004, 192.0, 1.0, 0.0, 255.0, 176.0, 31.0, 96.0, 0.0, 0.0, 0.0, 1.6896028803572176E9, 0.0, 2023-07-17 16:08:00.357
140.0, -177575.9148688215, -181850.23896100986, -179171.40473978576, -178841.89532302564, -181644.15587713194, -183089.26321140092, -185235.09773434376, 187500.0, 0.032, -0.01, 1.004, 192.0, 0.0, 0.0, 0.0, 0.0, 0.0, 0.0, 0.0, 0.0, 0.0, 1.6896028803572636E9, 0.0, 2023-07-17 16:08:00.357
141.0, -177560.670979103, -181870.91432463104, -179186.76038822657, -178822.82928500525, -181655.19763889286, -183076.47801357246, -185203.13473977265, 187500.0, 0.032, -0.01, 1.004, 192.0, 0.0, 0.0, 0.0, 0.0, 0.0, 0.0, 0.0, 0.0, 0.0, 1.6896028803572903E9, 0.0, 2023-07-17 16:08:00.357
142.0, -177590.84583411764, -181877.66455145652, -179181.66419049076, -178800.6116510167, -181665.01005470875, -183076.3662548502, -185191.44477742253, 187500.0, 0.032, -0.01, 1.004, 192.0, 0.0, 0.0, 0.0, 0.0, 0.0, 0.0, 0.0, 0.0, 0.0, 1.6896028803573332E9, 0.0, 2023-07-17 16:08:00.357
143.0, -177583.69327589194, -181861.5265919598, -179156.51847797853, -178805.68549700803, -181642.0771648976, -183080.85895548572, -185202.39713220563, 187500.0, 0.032, -0.01, 1.004, 192.0, 0.0, 0.0, 0.0, 0.0, 0.0, 0.0, 0.0, 0.0, 0.0, 1.6896028803573625E9, 0.0, 2023-07-17 16:08:00.357
144.0, -177544.86829577308, -181849.83662960966, -179170.53302175202, -178825.60090131772, -181635.34928981654, -183068.0737576573, -185203.3135537283, 187500.0, 0.032, -0.01, 1.004, 192.0, 0.0, 0.0, 0.0, 0.0, 0.0, 0.0, 0.0, 0.0, 0.0, 1.6896028803575013E9, 0.0, 2023-07-17 16:08:00.357
145.0, -177522.51655131776, -181845.88037084107, -179191.1860336287, -178844.48812538246, -181641.76424047523, -183049.83473418176, -185172.46814637998, 187500.0, 0.032, -0.01, 1.004, 192.0, 0.0, 0.0, 0.0, 0.0, 0.0, 0.0, 0.0, 0.0, 0.0, 1.6896028803575437E9, 0.0, 2023-07-17 16:08:00.357
146.0, -177528.77503976526, -181865.61696119513, -179222.63493807733, -178866.39283494864, -181666.5746768206, -183049.4994580149, -185151.74807926992, 187500.0, 0.032, -0.01, 1.004, 192.0, 0.0, 0.0, 0.0, 0.0, 0.0, 0.0, 0.0, 0.0, 0.0, 1.6896028803575943E9, 0.0, 2023-07-17 16:08:00.357
147.0, -177541.96256899388, -181885.3759032936, -179244.67375811026, -178841.13536371416, -181680.11983396052, -183048.2030568365, -185133.41964881655, 187500.0, 0.032, -0.01, 1.004, 192.0, 0.0, 0.0, 0.0, 0.0, 0.0, 0.0, 0.0, 0.0, 0.0, 1.6896028803576412E9, 0.0, 2023-07-17 16:08:00.357
148.0, -177560.00042676931, -181861.5712954487, -179199.9032139663, -178819.90120648162, -181656.73990926027, -183039.8435044102, -185110.2408898164, 187500.0, 0.032, -0.01, 1.004, 192.0, 0.0, 0.0, 0.0, 0.0, 0.0, 0.0, 0.0, 0.0, 0.0, 1.6896028803576963E9, 0.0, 2023-07-17 16:08:00.357
149.0, -177545.18122019546, -181849.18842902046, -179186.91685043776, -178833.60282583273, -181618.25020530823, -183075.67335077206, -185126.91529118005, 187500.0, 0.036000000000000004, -0.008, 1.002, 192.0, 1.0, 32.0, 255.0, 192.0, 31.0, 80.0, 0.0, 0.0, 0.0, 1.6896028803577487E9, 0.0, 2023-07-17 16:08:00.357
150.0, -177511.36303083456, -181849.47900169838, -179197.33276335392, -178858.3685586892, -181587.1589287709, -183139.46522944752, -185161.78401253035, 187500.0, 0.036000000000000004, -0.008, 1.002, 192.0, 0.0, 0.0, 0.0, 0.0, 0.0, 0.0, 0.0, 0.0, 0.0, 1.6896028803578072E9, 0.0, 2023-07-17 16:08:00.357
151.0, -177513.39703958, -181842.3711469616, -179192.72830399615, -178870.7737768619, -181537.35924212448, -183187.11914862623, -185176.3573499152, 187500.0, 0.036000000000000004, -0.008, 1.002, 192.0, 0.0, 0.0, 0.0, 0.0, 0.0, 0.0, 0.0, 0.0, 0.0, 1.689602880357861E9, 0.0, 2023-07-17 16:08:00.357
152.0, -177563.9566855379, -181840.40419344953, -179186.045132404, -178884.81067237983, -181489.8841369014, -183211.52725357143, -185188.9190302991, 187500.0, 0.036000000000000004, -0.008, 1.002, 192.0, 0.0, 0.0, 0.0, 0.0, 0.0, 0.0, 0.0, 0.0, 0.0, 1.6896028803579173E9, 0.0, 2023-07-17 16:08:00.357
153.0, -177600.65824993353, -181835.10683001362, -179173.75167295357, -178891.04680908285, -181438.92215954332, -183220.80322752037, -185193.970524546, 187500.0, 0.036000000000000004, -0.008, 1.002, 192.0, 0.0, 0.0, 0.0, 0.0, 0.0, 0.0, 0.0, 0.0, 0.0, 1.6896028803579724E9, 0.0, 2023-07-17 16:08:00.357
154.0, -177623.0770496222, -181818.4100769055, -179155.31148377794, -178886.21883228052, -181392.6540485208, -183222.14433218772, -185193.5681931458, 187500.0, 0.036000000000000004, -0.008, 1.002, 192.0, 0.0, 0.0, 0.0, 0.0, 0.0, 0.0, 0.0, 0.0, 0.0, 1.6896028803580291E9, 0.0, 2023-07-17 16:08:00.358
155.0, -177638.96913992992, -181795.87951849456, -179131.1715997662, -178862.05659652431, -181377.8124902025, -183230.50388461398, -185186.59444887572, 187500.0, 0.036000000000000004, -0.008, 1.002, 192.0, 0.0, 0.0, 0.0, 0.0, 0.0, 0.0, 0.0, 0.0, 0.0, 1.689602880358081E9, 0.0, 2023-07-17 16:08:00.358
156.0, -177660.80679426275, -181793.46553009338, -179128.95877706516, -178827.34433738524, -181425.75698205913, -183231.64382358122, -185179.3077801833, 187500.0, 0.036000000000000004, -0.008, 1.002, 192.0, 0.0, 0.0, 0.0, 0.0, 0.0, 0.0, 0.0, 0.0, 0.0, 1.6896028803581564E9, 0.0, 2023-07-17 16:08:00.358
