%OpenBCI Raw EXG Data
%Number of channels = 8
%Sample Rate = 250 Hz
%Board = OpenBCI_GUI$BoardCytonSerial
Sample Index, EXG Channel 0, EXG Channel 1, EXG Channel 2, EXG Channel 3, EXG Channel 4, EXG Channel 5, EXG Channel 6, EXG Channel 7, Accel Channel 0, Accel Channel 1, Accel Channel 2, Other, Other, Other, Other, Other, Other, Other, Analog Channel 0, Analog Channel 1, Analog Channel 2, Timestamp, Other, Timestamp (Formatted)
0.0, 0.0, 0.0, 0.0, 0.0, 0.0, 0.0, 0.0, 0.0, 0.03, -0.018000000000000002, 1.008, 192.0, 0.0, 240.0, 255.0, 112.0, 31.0, 128.0, 0.0, 0.0, 0.0, 1.6895993276818864E9, 0.0, 2023-07-17 15:08:47.681
1.0, -232.5922528019253, 187500.0, 187500.0, 187500.0, 187500.0, 187500.0, 187500.0, 187500.0, 0.03, -0.018000000000000002, 1.008, 192.0, 0.0, 0.0, 0.0, 0.0, 0.0, 0.0, 0.0, 0.0, 0.0, 1.6895993281620777E9, 0.0, 2023-07-17 15:08:48.162
2.0, -248.68550880974638, 187500.0, 187500.0, 187500.0, 187500.0, 187500.0, 187500.0, 187500.0, 0.03, -0.018000000000000002, 1.008, 192.0, 0.0, 0.0, 0.0, 0.0, 0.0, 0.0, 0.0, 0.0, 0.0, 1.6895993281622567E9, 0.0, 2023-07-17 15:08:48.162
3.0, -243.61166281839166, 187500.0, 187500.0, 187500.0, 187500.0, 187500.0, 187500.0, 187500.0, 0.03, -0.018000000000000002, 1.008, 192.0, 0.0, 0.0, 0.0, 0.0, 0.0, 0.0, 0.0, 0.0, 0.0, 1.6895993281623232E9, 0.0, 2023-07-17 15:08:48.162
4.0, -223.1598166417857, 187500.0, 187500.0, 187500.0, 187500.0, 187500.0, 187500.0, 187500.0, 0.03, -0.018000000000000002, 1.008, 192.0, 0.0, 0.0, 0.0, 0.0, 0.0, 0.0, 0.0, 0.0, 0.0, 1.6895993281623857E9, 0.0, 2023-07-17 15:08:48.162
5.0, -216.7895694720232, 187500.0, 187500.0, 187500.0, 187500.0, 187500.0, 187500.0, 187500.0, 0.03, -0.018000000000000002, 1.008, 192.0, 0.0, 0.0, 0.0, 0.0, 0.0, 0.0, 0.0, 0.0, 0.0, 1.6895993281624763E9, 0.0, 2023-07-17 15:08:48.162
6.0, -233.39691560231634, 187500.0, 187500.0, 187500.0, 187500.0, 187500.0, 187500.0, 187500.0, 0.03, -0.018000000000000002, 1.008, 192.0, 0.0, 0.0, 0.0, 0.0, 0.0, 0.0, 0.0, 0.0, 0.0, 1.68959932816253E9, 0.0, 2023-07-17 15:08:48.162
7.0, -249.89250301033297, 187500.0, 187500.0, 187500.0, 187500.0, 187500.0, 187500.0, 187500.0, 0.03, -0.018000000000000002, 1.008, 192.0, 0.0, 0.0, 0.0, 0.0, 0.0, 0.0, 0.0, 0.0, 0.0, 1.6895993281625798E9, 0.0, 2023-07-17 15:08:48.162
8.0, -243.052869207009, 187500.0, 187500.0, 187500.0, 187500.0, 187500.0, 187500.0, 187500.0, 0.028, -0.02, 1.006, 192.0, 0.0, 224.0, 255.0, 96.0, 31.0, 112.0, 0.0, 0.0, 0.0, 1.6895993281626344E9, 0.0, 2023-07-17 15:08:48.162
9.0, -222.1539881412969, 187500.0, 187500.0, 187500.0, 187500.0, 187500.0, 187500.0, 187500.0, 0.028, -0.02, 1.006, 192.0, 0.0, 0.0, 0.0, 0.0, 0.0, 0.0, 0.0, 0.0, 0.0, 1.6895993281626823E9, 0.0, 2023-07-17 15:08:48.162
10.0, -216.02961016054277, 187500.0, 187500.0, 187500.0, 187500.0, 187500.0, 187500.0, 187500.0, 0.028, -0.02, 1.006, 192.0, 0.0, 0.0, 0.0, 0.0, 0.0, 0.0, 0.0, 0.0, 0.0, 1.689599328162734E9, 0.0, 2023-07-17 15:08:48.162
11.0, -232.50284582410407, 187500.0, 187500.0, 187500.0, 187500.0, 187500.0, 187500.0, 187500.0, 0.028, -0.02, 1.006, 192.0, 0.0, 0.0, 0.0, 0.0, 0.0, 0.0, 0.0, 0.0, 0.0, 1.6895993281627903E9, 0.0, 2023-07-17 15:08:48.162
12.0, -249.26665416558436, 187500.0, 187500.0, 187500.0, 187500.0, 187500.0, 187500.0, 187500.0, 0.028, -0.02, 1.006, 192.0, 0.0, 0.0, 0.0, 0.0, 0.0, 0.0, 0.0, 0.0, 0.0, 1.6895993281628568E9, 0.0, 2023-07-17 15:08:48.162
13.0, -243.87988375185537, 187500.0, 187500.0, 187500.0, 187500.0, 187500.0, 187500.0, 187500.0, 0.028, -0.02, 1.006, 192.0, 0.0, 0.0, 0.0, 0.0, 0.0, 0.0, 0.0, 0.0, 0.0, 1.689599328162917E9, 0.0, 2023-07-17 15:08:48.162
14.0, -222.53396779703712, 187500.0, 187500.0, 187500.0, 187500.0, 187500.0, 187500.0, 187500.0, 0.028, -0.02, 1.006, 192.0, 0.0, 0.0, 0.0, 0.0, 0.0, 0.0, 0.0, 0.0, 0.0, 1.689599328162971E9, 0.0, 2023-07-17 15:08:48.162
15.0, -216.7895694720232, 187500.0, 187500.0, 187500.0, 187500.0, 187500.0, 187500.0, 187500.0, 0.028, -0.02, 1.006, 192.0, 0.0, 0.0, 0.0, 0.0, 0.0, 0.0, 0.0, 0.0, 0.0, 1.6895993281630278E9, 0.0, 2023-07-17 15:08:48.163
16.0, -233.93335746924373, 187500.0, 187500.0, 187500.0, 187500.0, 187500.0, 187500.0, 187500.0, 0.028, -0.02, 1.006, 192.0, 0.0, 0.0, 0.0, 0.0, 0.0, 0.0, 0.0, 0.0, 0.0, 1.6895993281639025E9, 0.0, 2023-07-17 15:08:48.163
17.0, -249.57957858795865, 187500.0, 187500.0, 187500.0, 187500.0, 187500.0, 187500.0, 187500.0, 0.032, -0.02, 1.008, 192.0, 1.0, 0.0, 255.0, 96.0, 31.0, 128.0, 0.0, 0.0, 0.0, 1.689599328163961E9, 0.0, 2023-07-17 15:08:48.163
18.0, -243.61166281839166, 187500.0, 187500.0, 187500.0, 187500.0, 187500.0, 187500.0, 187500.0, 0.032, -0.02, 1.008, 192.0, 0.0, 0.0, 0.0, 0.0, 0.0, 0.0, 0.0, 0.0, 0.0, 1.6895993281640184E9, 0.0, 2023-07-17 15:08:48.164
19.0, -222.84689221941142, 187500.0, 187500.0, 187500.0, 187500.0, 187500.0, 187500.0, 187500.0, 0.032, -0.02, 1.008, 192.0, 0.0, 0.0, 0.0, 0.0, 0.0, 0.0, 0.0, 0.0, 0.0, 1.68959932816407E9, 0.0, 2023-07-17 15:08:48.164
20.0, -216.4542933051936, 187500.0, 187500.0, 187500.0, 187500.0, 187500.0, 187500.0, 187500.0, 0.032, -0.02, 1.008, 192.0, 0.0, 0.0, 0.0, 0.0, 0.0, 0.0, 0.0, 0.0, 0.0, 1.6895993281641316E9, 0.0, 2023-07-17 15:08:48.164
21.0, -233.39691560231634, 187500.0, 187500.0, 187500.0, 187500.0, 187500.0, 187500.0, 187500.0, 0.032, -0.02, 1.008, 192.0, 0.0, 0.0, 0.0, 0.0, 0.0, 0.0, 0.0, 0.0, 0.0, 1.6895993281641765E9, 0.0, 2023-07-17 15:08:48.164
22.0, -250.04896522152012, 187500.0, 187500.0, 187500.0, 187500.0, 187500.0, 187500.0, 187500.0, 0.032, -0.02, 1.008, 192.0, 0.0, 0.0, 0.0, 0.0, 0.0, 0.0, 0.0, 0.0, 0.0, 1.6895993281642258E9, 0.0, 2023-07-17 15:08:48.164
23.0, -243.29873839601737, 187500.0, 187500.0, 187500.0, 187500.0, 187500.0, 187500.0, 187500.0, 0.032, -0.02, 1.008, 192.0, 0.0, 0.0, 0.0, 0.0, 0.0, 0.0, 0.0, 0.0, 0.0, 1.6895993281643064E9, 0.0, 2023-07-17 15:08:48.164
24.0, -222.53396779703712, 187500.0, 187500.0, 187500.0, 187500.0, 187500.0, 187500.0, 187500.0, 0.032, -0.02, 1.008, 192.0, 0.0, 0.0, 0.0, 0.0, 0.0, 0.0, 0.0, 0.0, 0.0, 1.6895993281643555E9, 0.0, 2023-07-17 15:08:48.164
25.0, -216.1413688828193, 187500.0, 187500.0, 187500.0, 187500.0, 187500.0, 187500.0, 187500.0, 0.032, -0.02, 1.008, 192.0, 0.0, 0.0, 0.0, 0.0, 0.0, 0.0, 0.0, 0.0, 0.0, 1.6895993281644182E9, 0.0, 2023-07-17 15:08:48.164
26.0, -233.03928769103143, 187500.0, 187500.0, 187500.0, 187500.0, 187500.0, 187500.0, 187500.0, 0.032, -0.02, 1.008, 192.0, 0.0, 0.0, 0.0, 0.0, 0.0, 0.0, 0.0, 0.0, 0.0, 1.6895993281644728E9, 0.0, 2023-07-17 15:08:48.164
27.0, -249.62428207686926, 187500.0, 187500.0, 187500.0, 187500.0, 187500.0, 187500.0, 187500.0, 0.028, -0.02, 1.008, 192.0, 0.0, 224.0, 255.0, 96.0, 31.0, 128.0, 0.0, 0.0, 0.0, 1.6895993281645277E9, 0.0, 2023-07-17 15:08:48.164
28.0, -243.56695932948105, 187500.0, 187500.0, 187500.0, 187500.0, 187500.0, 187500.0, 187500.0, 0.028, -0.02, 1.008, 192.0, 0.0, 0.0, 0.0, 0.0, 0.0, 0.0, 0.0, 0.0, 0.0, 1.6895993281645885E9, 0.0, 2023-07-17 15:08:48.164
29.0, -222.66807826376896, 187500.0, 187500.0, 187500.0, 187500.0, 187500.0, 187500.0, 187500.0, 0.028, -0.02, 1.008, 192.0, 0.0, 0.0, 0.0, 0.0, 0.0, 0.0, 0.0, 0.0, 0.0, 1.6895993281646428E9, 0.0, 2023-07-17 15:08:48.164
30.0, -216.63310726083606, 187500.0, 187500.0, 187500.0, 187500.0, 187500.0, 187500.0, 187500.0, 0.028, -0.02, 1.008, 192.0, 0.0, 0.0, 0.0, 0.0, 0.0, 0.0, 0.0, 0.0, 0.0, 1.6895993281646943E9, 0.0, 2023-07-17 15:08:48.164
31.0, -232.21227314618508, 187500.0, 187500.0, 187500.0, 187500.0, 187500.0, 187500.0, 187500.0, 0.028, -0.02, 1.008, 192.0, 0.0, 0.0, 0.0, 0.0, 0.0, 0.0, 0.0, 0.0, 0.0, 1.689599328165233E9, 0.0, 2023-07-17 15:08:48.165
32.0, -249.7583925436011, 187500.0, 187500.0, 187500.0, 187500.0, 187500.0, 187500.0, 187500.0, 0.028, -0.02, 1.008, 192.0, 0.0, 0.0, 0.0, 0.0, 0.0, 0.0, 0.0, 0.0, 0.0, 1.6895993281652985E9, 0.0, 2023-07-17 15:08:48.165
33.0, -243.49990409611513, 187500.0, 187500.0, 187500.0, 187500.0, 187500.0, 187500.0, 187500.0, 0.028, -0.02, 1.008, 192.0, 0.0, 0.0, 0.0, 0.0, 0.0, 0.0, 0.0, 0.0, 0.0, 1.6895993281653488E9, 0.0, 2023-07-17 15:08:48.165
34.0, -222.55631954149243, 187500.0, 187500.0, 187500.0, 187500.0, 187500.0, 187500.0, 187500.0, 0.028, -0.02, 1.008, 192.0, 0.0, 0.0, 0.0, 0.0, 0.0, 0.0, 0.0, 0.0, 0.0, 1.6895993281654012E9, 0.0, 2023-07-17 15:08:48.165
35.0, -215.82844446044498, 187500.0, 187500.0, 187500.0, 187500.0, 187500.0, 187500.0, 187500.0, 0.028, -0.02, 1.008, 192.0, 0.0, 0.0, 0.0, 0.0, 0.0, 0.0, 0.0, 0.0, 0.0, 1.6895993281654549E9, 0.0, 2023-07-17 15:08:48.165
36.0, -232.52519756855938, 187500.0, 187500.0, 187500.0, 187500.0, 187500.0, 187500.0, 187500.0, 0.028, -0.02, 1.008, 192.0, 0.0, 0.0, 0.0, 0.0, 0.0, 0.0, 0.0, 0.0, 0.0, 1.6895993281655056E9, 0.0, 2023-07-17 15:08:48.165
37.0, -249.24430242112905, 187500.0, 187500.0, 187500.0, 187500.0, 187500.0, 187500.0, 187500.0, 0.028, -0.018000000000000002, 1.01, 192.0, 0.0, 224.0, 255.0, 112.0, 31.0, 144.0, 0.0, 0.0, 0.0, 1.689599328165558E9, 0.0, 2023-07-17 15:08:48.165
38.0, -244.68454655224642, 187500.0, 187500.0, 187500.0, 187500.0, 187500.0, 187500.0, 187500.0, 0.028, -0.018000000000000002, 1.01, 192.0, 0.0, 0.0, 0.0, 0.0, 0.0, 0.0, 0.0, 0.0, 0.0, 1.689599328165616E9, 0.0, 2023-07-17 15:08:48.165
39.0, -222.86924396386672, 187500.0, 187500.0, 187500.0, 187500.0, 187500.0, 187500.0, 187500.0, 0.028, -0.018000000000000002, 1.01, 192.0, 0.0, 0.0, 0.0, 0.0, 0.0, 0.0, 0.0, 0.0, 0.0, 1.6895993281656682E9, 0.0, 2023-07-17 15:08:48.165
40.0, -215.71668573816845, 187500.0, 187500.0, 187500.0, 187500.0, 187500.0, 187500.0, 187500.0, 0.028, -0.018000000000000002, 1.01, 192.0, 0.0, 0.0, 0.0, 0.0, 0.0, 0.0, 0.0, 0.0, 0.0, 1.6895993281657503E9, 0.0, 2023-07-17 15:08:48.165
41.0, -232.52519756855938, 187500.0, 187500.0, 187500.0, 187500.0, 187500.0, 187500.0, 187500.0, 0.028, -0.018000000000000002, 1.01, 192.0, 0.0, 0.0, 0.0, 0.0, 0.0, 0.0, 0.0, 0.0, 0.0, 1.6895993281658251E9, 0.0, 2023-07-17 15:08:48.165
42.0, -249.15489544330782, 187500.0, 187500.0, 187500.0, 187500.0, 187500.0, 187500.0, 187500.0, 0.028, -0.018000000000000002, 1.01, 192.0, 0.0, 0.0, 0.0, 0.0, 0.0, 0.0, 0.0, 0.0, 0.0, 1.6895993281658936E9, 0.0, 2023-07-17 15:08:48.165
43.0, -243.85753200740007, 187500.0, 187500.0, 187500.0, 187500.0, 187500.0, 187500.0, 187500.0, 0.028, -0.018000000000000002, 1.01, 192.0, 0.0, 0.0, 0.0, 0.0, 0.0, 0.0, 0.0, 0.0, 0.0, 1.6895993281659436E9, 0.0, 2023-07-17 15:08:48.165
44.0, -223.38333408633878, 187500.0, 187500.0, 187500.0, 187500.0, 187500.0, 187500.0, 187500.0, 0.028, -0.018000000000000002, 1.01, 192.0, 0.0, 0.0, 0.0, 0.0, 0.0, 0.0, 0.0, 0.0, 0.0, 1.6895993281659925E9, 0.0, 2023-07-17 15:08:48.165
45.0, -215.5825752714366, 187500.0, 187500.0, 187500.0, 187500.0, 187500.0, 187500.0, 187500.0, 0.028, -0.018000000000000002, 1.01, 192.0, 0.0, 0.0, 0.0, 0.0, 0.0, 0.0, 0.0, 0.0, 0.0, 1.6895993281660461E9, 0.0, 2023-07-17 15:08:48.166
46.0, -232.12286616836386, 187500.0, 187500.0, 187500.0, 187500.0, 187500.0, 187500.0, 187500.0, 0.028, -0.018000000000000002, 1.01, 192.0, 0.0, 0.0, 0.0, 0.0, 0.0, 0.0, 0.0, 0.0, 0.0, 1.6895993281661005E9, 0.0, 2023-07-17 15:08:48.166
47.0, -248.84197102093353, 187500.0, 187500.0, 187500.0, 187500.0, 187500.0, 187500.0, 187500.0, 0.034, -0.018000000000000002, 1.014, 192.0, 1.0, 16.0, 255.0, 112.0, 31.0, 176.0, 0.0, 0.0, 0.0, 1.6895993281663597E9, 0.0, 2023-07-17 15:08:48.166
48.0, -243.27638665156206, 187500.0, 187500.0, 187500.0, 187500.0, 187500.0, 187500.0, 187500.0, 0.034, -0.018000000000000002, 1.014, 192.0, 0.0, 0.0, 0.0, 0.0, 0.0, 0.0, 0.0, 0.0, 0.0, 1.6895993281664095E9, 0.0, 2023-07-17 15:08:48.166
49.0, -222.4445608192159, 187500.0, 187500.0, 187500.0, 187500.0, 187500.0, 187500.0, 187500.0, 0.034, -0.018000000000000002, 1.014, 192.0, 0.0, 0.0, 0.0, 0.0, 0.0, 0.0, 0.0, 0.0, 0.0, 1.6895993281664526E9, 0.0, 2023-07-17 15:08:48.166
50.0, -215.60492701589192, 187500.0, 187500.0, 187500.0, 187500.0, 187500.0, 187500.0, 187500.0, 0.034, -0.018000000000000002, 1.014, 192.0, 0.0, 0.0, 0.0, 0.0, 0.0, 0.0, 0.0, 0.0, 0.0, 1.6895993281664977E9, 0.0, 2023-07-17 15:08:48.166
51.0, -231.6758312792577, 187500.0, 187500.0, 187500.0, 187500.0, 187500.0, 187500.0, 187500.0, 0.034, -0.018000000000000002, 1.014, 192.0, 0.0, 0.0, 0.0, 0.0, 0.0, 0.0, 0.0, 0.0, 0.0, 1.689599328166541E9, 0.0, 2023-07-17 15:08:48.166
52.0, -249.13254369885252, 187500.0, 187500.0, 187500.0, 187500.0, 187500.0, 187500.0, 187500.0, 0.034, -0.018000000000000002, 1.014, 192.0, 0.0, 0.0, 0.0, 0.0, 0.0, 0.0, 0.0, 0.0, 0.0, 1.689599328166587E9, 0.0, 2023-07-17 15:08:48.166
53.0, -243.9916424741319, 187500.0, 187500.0, 187500.0, 187500.0, 187500.0, 187500.0, 187500.0, 0.034, -0.018000000000000002, 1.014, 192.0, 0.0, 0.0, 0.0, 0.0, 0.0, 0.0, 0.0, 0.0, 0.0, 1.689599328166632E9, 0.0, 2023-07-17 15:08:48.166
54.0, -222.33280209693936, 187500.0, 187500.0, 187500.0, 187500.0, 187500.0, 187500.0, 187500.0, 0.034, -0.018000000000000002, 1.014, 192.0, 0.0, 0.0, 0.0, 0.0, 0.0, 0.0, 0.0, 0.0, 0.0, 1.6895993281666827E9, 0.0, 2023-07-17 15:08:48.166
55.0, -215.80609271598968, 187500.0, 187500.0, 187500.0, 187500.0, 187500.0, 187500.0, 187500.0, 0.034, -0.018000000000000002, 1.014, 192.0, 0.0, 0.0, 0.0, 0.0, 0.0, 0.0, 0.0, 0.0, 0.0, 1.689599328166783E9, 0.0, 2023-07-17 15:08:48.166
56.0, -232.14521791281916, 187500.0, 187500.0, 187500.0, 187500.0, 187500.0, 187500.0, 187500.0, 0.034, -0.018000000000000002, 1.014, 192.0, 0.0, 0.0, 0.0, 0.0, 0.0, 0.0, 0.0, 0.0, 0.0, 1.6895993281668367E9, 0.0, 2023-07-17 15:08:48.166
57.0, -249.0878402099419, 187500.0, 187500.0, 187500.0, 187500.0, 187500.0, 187500.0, 187500.0, 0.036000000000000004, -0.022, 1.012, 192.0, 1.0, 32.0, 255.0, 80.0, 31.0, 160.0, 0.0, 0.0, 0.0, 1.6895993281668828E9, 0.0, 2023-07-17 15:08:48.166
58.0, -243.79047677403412, 187500.0, 187500.0, 187500.0, 187500.0, 187500.0, 187500.0, 187500.0, 0.036000000000000004, -0.022, 1.012, 192.0, 0.0, 0.0, 0.0, 0.0, 0.0, 0.0, 0.0, 0.0, 0.0, 1.6895993281669319E9, 0.0, 2023-07-17 15:08:48.166
59.0, -223.47274106416, 187500.0, 187500.0, 187500.0, 187500.0, 187500.0, 187500.0, 187500.0, 0.036000000000000004, -0.022, 1.012, 192.0, 0.0, 0.0, 0.0, 0.0, 0.0, 0.0, 0.0, 0.0, 0.0, 1.6895993281669793E9, 0.0, 2023-07-17 15:08:48.166
60.0, -215.40376131579416, 187500.0, 187500.0, 187500.0, 187500.0, 187500.0, 187500.0, 187500.0, 0.036000000000000004, -0.022, 1.012, 192.0, 0.0, 0.0, 0.0, 0.0, 0.0, 0.0, 0.0, 0.0, 0.0, 1.68959932816706E9, 0.0, 2023-07-17 15:08:48.167
61.0, -231.0499824345091, 187500.0, 187500.0, 187500.0, 187500.0, 187500.0, 187500.0, 187500.0, 0.036000000000000004, -0.022, 1.012, 192.0, 0.0, 0.0, 0.0, 0.0, 0.0, 0.0, 0.0, 0.0, 0.0, 1.689599328167116E9, 0.0, 2023-07-17 15:08:48.167
62.0, -249.4454681212268, 187500.0, 187500.0, 187500.0, 187500.0, 187500.0, 187500.0, 187500.0, 0.036000000000000004, -0.022, 1.012, 192.0, 0.0, 0.0, 0.0, 0.0, 0.0, 0.0, 0.0, 0.0, 0.0, 1.6895993281674495E9, 0.0, 2023-07-17 15:08:48.167
63.0, -245.35509888590562, 187500.0, 187500.0, 187500.0, 187500.0, 187500.0, 187500.0, 187500.0, 0.036000000000000004, -0.022, 1.012, 192.0, 0.0, 0.0, 0.0, 0.0, 0.0, 0.0, 0.0, 0.0, 0.0, 1.6895993281675017E9, 0.0, 2023-07-17 15:08:48.167
64.0, -223.4503893197047, 187500.0, 187500.0, 187500.0, 187500.0, 187500.0, 187500.0, 187500.0, 0.036000000000000004, -0.022, 1.012, 192.0, 0.0, 0.0, 0.0, 0.0, 0.0, 0.0, 0.0, 0.0, 0.0, 1.6895993281675498E9, 0.0, 2023-07-17 15:08:48.167
65.0, -216.56605202747014, 187500.0, 187500.0, 187500.0, 187500.0, 187500.0, 187500.0, 187500.0, 0.036000000000000004, -0.022, 1.012, 192.0, 0.0, 0.0, 0.0, 0.0, 0.0, 0.0, 0.0, 0.0, 0.0, 1.689599328167598E9, 0.0, 2023-07-17 15:08:48.167
66.0, -232.70401152420183, 187500.0, 187500.0, 187500.0, 187500.0, 187500.0, 187500.0, 187500.0, 0.036000000000000004, -0.022, 1.012, 192.0, 0.0, 0.0, 0.0, 0.0, 0.0, 0.0, 0.0, 0.0, 0.0, 1.6895993281676447E9, 0.0, 2023-07-17 15:08:48.167
67.0, -249.57957858795865, 187500.0, 187500.0, 187500.0, 187500.0, 187500.0, 187500.0, 187500.0, 0.038, -0.022, 1.01, 192.0, 1.0, 48.0, 255.0, 80.0, 31.0, 144.0, 0.0, 0.0, 0.0, 1.6895993281676934E9, 0.0, 2023-07-17 15:08:48.167
68.0, -244.55043608551458, 187500.0, 187500.0, 187500.0, 187500.0, 187500.0, 187500.0, 187500.0, 0.038, -0.022, 1.01, 192.0, 0.0, 0.0, 0.0, 0.0, 0.0, 0.0, 0.0, 0.0, 0.0, 1.6895993281677656E9, 0.0, 2023-07-17 15:08:48.167
69.0, -222.8021887305008, 187500.0, 187500.0, 187500.0, 187500.0, 187500.0, 187500.0, 187500.0, 0.038, -0.022, 1.01, 192.0, 0.0, 0.0, 0.0, 0.0, 0.0, 0.0, 0.0, 0.0, 0.0, 1.6895993281678188E9, 0.0, 2023-07-17 15:08:48.167
70.0, -215.8954996938109, 187500.0, 187500.0, 187500.0, 187500.0, 187500.0, 187500.0, 187500.0, 0.038, -0.022, 1.01, 192.0, 0.0, 0.0, 0.0, 0.0, 0.0, 0.0, 0.0, 0.0, 0.0, 1.6895993281678712E9, 0.0, 2023-07-17 15:08:48.167
71.0, -231.42996209024932, 187500.0, 187500.0, 187500.0, 187500.0, 187500.0, 187500.0, 187500.0, 0.038, -0.022, 1.01, 192.0, 0.0, 0.0, 0.0, 0.0, 0.0, 0.0, 0.0, 0.0, 0.0, 1.6895993281679304E9, 0.0, 2023-07-17 15:08:48.167
72.0, -248.86432276538883, 187500.0, 187500.0, 187500.0, 187500.0, 187500.0, 187500.0, 187500.0, 0.038, -0.022, 1.01, 192.0, 0.0, 0.0, 0.0, 0.0, 0.0, 0.0, 0.0, 0.0, 0.0, 1.6895993281679852E9, 0.0, 2023-07-17 15:08:48.167
73.0, -244.72925004115703, 187500.0, 187500.0, 187500.0, 187500.0, 187500.0, 187500.0, 187500.0, 0.038, -0.022, 1.01, 192.0, 0.0, 0.0, 0.0, 0.0, 0.0, 0.0, 0.0, 0.0, 0.0, 1.6895993281680439E9, 0.0, 2023-07-17 15:08:48.168
74.0, -223.9868311866321, 187500.0, 187500.0, 187500.0, 187500.0, 187500.0, 187500.0, 187500.0, 0.038, -0.022, 1.01, 192.0, 0.0, 0.0, 0.0, 0.0, 0.0, 0.0, 0.0, 0.0, 0.0, 1.6895993281681306E9, 0.0, 2023-07-17 15:08:48.168
75.0, -215.64963050480253, 187500.0, 187500.0, 187500.0, 187500.0, 187500.0, 187500.0, 187500.0, 0.038, -0.022, 1.01, 192.0, 0.0, 0.0, 0.0, 0.0, 0.0, 0.0, 0.0, 0.0, 0.0, 1.6895993281681917E9, 0.0, 2023-07-17 15:08:48.168
76.0, -231.78759000153423, 187500.0, 187500.0, 187500.0, 187500.0, 187500.0, 187500.0, 187500.0, 0.038, -0.022, 1.01, 192.0, 0.0, 0.0, 0.0, 0.0, 0.0, 0.0, 0.0, 0.0, 0.0, 1.689599328168236E9, 0.0, 2023-07-17 15:08:48.168
77.0, -249.91485475478828, 187500.0, 187500.0, 187500.0, 187500.0, 187500.0, 187500.0, 187500.0, 0.036000000000000004, -0.022, 1.012, 192.0, 1.0, 32.0, 255.0, 80.0, 31.0, 160.0, 0.0, 0.0, 0.0, 1.6895993281684842E9, 0.0, 2023-07-17 15:08:48.168
78.0, -244.84100876343356, 187500.0, 187500.0, 187500.0, 187500.0, 187500.0, 187500.0, 187500.0, 0.036000000000000004, -0.022, 1.012, 192.0, 0.0, 0.0, 0.0, 0.0, 0.0, 0.0, 0.0, 0.0, 0.0, 1.6895993281685452E9, 0.0, 2023-07-17 15:08:48.168
79.0, -223.31627885297286, 187500.0, 187500.0, 187500.0, 187500.0, 187500.0, 187500.0, 187500.0, 0.036000000000000004, -0.022, 1.012, 192.0, 0.0, 0.0, 0.0, 0.0, 0.0, 0.0, 0.0, 0.0, 0.0, 1.6895993281685953E9, 0.0, 2023-07-17 15:08:48.168
80.0, -215.49316829361538, 187500.0, 187500.0, 187500.0, 187500.0, 187500.0, 187500.0, 187500.0, 0.036000000000000004, -0.022, 1.012, 192.0, 0.0, 0.0, 0.0, 0.0, 0.0, 0.0, 0.0, 0.0, 0.0, 1.6895993281686423E9, 0.0, 2023-07-17 15:08:48.168
81.0, -231.0276306900538, 187500.0, 187500.0, 187500.0, 187500.0, 187500.0, 187500.0, 187500.0, 0.036000000000000004, -0.022, 1.012, 192.0, 0.0, 0.0, 0.0, 0.0, 0.0, 0.0, 0.0, 0.0, 0.0, 1.68959932816869E9, 0.0, 2023-07-17 15:08:48.168
82.0, -249.0878402099419, 187500.0, 187500.0, 187500.0, 187500.0, 187500.0, 187500.0, 187500.0, 0.036000000000000004, -0.022, 1.012, 192.0, 0.0, 0.0, 0.0, 0.0, 0.0, 0.0, 0.0, 0.0, 0.0, 1.6895993281687665E9, 0.0, 2023-07-17 15:08:48.168
83.0, -244.6621948077911, 187500.0, 187500.0, 187500.0, 187500.0, 187500.0, 187500.0, 187500.0, 0.036000000000000004, -0.022, 1.012, 192.0, 0.0, 0.0, 0.0, 0.0, 0.0, 0.0, 0.0, 0.0, 0.0, 1.689599328168836E9, 0.0, 2023-07-17 15:08:48.168
84.0, -223.65155501980246, 187500.0, 187500.0, 187500.0, 187500.0, 187500.0, 187500.0, 187500.0, 0.036000000000000004, -0.022, 1.012, 192.0, 0.0, 0.0, 0.0, 0.0, 0.0, 0.0, 0.0, 0.0, 0.0, 1.6895993281688852E9, 0.0, 2023-07-17 15:08:48.168
85.0, -216.7448659831126, 187500.0, 187500.0, 187500.0, 187500.0, 187500.0, 187500.0, 187500.0, 0.036000000000000004, -0.022, 1.012, 192.0, 0.0, 0.0, 0.0, 0.0, 0.0, 0.0, 0.0, 0.0, 0.0, 1.6895993281689355E9, 0.0, 2023-07-17 15:08:48.168
86.0, -232.10051442390855, 187500.0, 187500.0, 187500.0, 187500.0, 187500.0, 187500.0, 187500.0, 0.036000000000000004, -0.022, 1.012, 192.0, 0.0, 0.0, 0.0, 0.0, 0.0, 0.0, 0.0, 0.0, 0.0, 1.6895993281689787E9, 0.0, 2023-07-17 15:08:48.168
87.0, -249.26665416558436, 187500.0, 187500.0, 187500.0, 187500.0, 187500.0, 187500.0, 187500.0, 0.04, -0.02, 1.008, 192.0, 1.0, 64.0, 255.0, 96.0, 31.0, 128.0, 0.0, 0.0, 0.0, 1.6895993281690283E9, 0.0, 2023-07-17 15:08:48.169
88.0, -244.6174913188805, 187500.0, 187500.0, 187500.0, 187500.0, 187500.0, 187500.0, 187500.0, 0.04, -0.02, 1.008, 192.0, 0.0, 0.0, 0.0, 0.0, 0.0, 0.0, 0.0, 0.0, 0.0, 1.6895993281690876E9, 0.0, 2023-07-17 15:08:48.169
89.0, -223.20452013069632, 187500.0, 187500.0, 187500.0, 187500.0, 187500.0, 187500.0, 187500.0, 0.04, -0.02, 1.008, 192.0, 0.0, 0.0, 0.0, 0.0, 0.0, 0.0, 0.0, 0.0, 0.0, 1.689599328169159E9, 0.0, 2023-07-17 15:08:48.169
90.0, -215.26965084906232, 187500.0, 187500.0, 187500.0, 187500.0, 187500.0, 187500.0, 187500.0, 0.04, -0.02, 1.008, 192.0, 0.0, 0.0, 0.0, 0.0, 0.0, 0.0, 0.0, 0.0, 0.0, 1.6895993281692295E9, 0.0, 2023-07-17 15:08:48.169
91.0, -232.9722324576655, 187500.0, 187500.0, 187500.0, 187500.0, 187500.0, 187500.0, 187500.0, 0.04, -0.02, 1.008, 192.0, 0.0, 0.0, 0.0, 0.0, 0.0, 0.0, 0.0, 0.0, 0.0, 1.689599328169282E9, 0.0, 2023-07-17 15:08:48.169
92.0, -249.7136890546905, 187500.0, 187500.0, 187500.0, 187500.0, 187500.0, 187500.0, 187500.0, 0.04, -0.02, 1.008, 192.0, 0.0, 0.0, 0.0, 0.0, 0.0, 0.0, 0.0, 0.0, 0.0, 1.6895993281694903E9, 0.0, 2023-07-17 15:08:48.169
93.0, -244.50573259660396, 187500.0, 187500.0, 187500.0, 187500.0, 187500.0, 187500.0, 187500.0, 0.04, -0.02, 1.008, 192.0, 0.0, 0.0, 0.0, 0.0, 0.0, 0.0, 0.0, 0.0, 0.0, 1.6895993281695397E9, 0.0, 2023-07-17 15:08:48.169
94.0, -222.91394745277734, 187500.0, 187500.0, 187500.0, 187500.0, 187500.0, 187500.0, 187500.0, 0.04, -0.02, 1.008, 192.0, 0.0, 0.0, 0.0, 0.0, 0.0, 0.0, 0.0, 0.0, 0.0, 1.6895993281695893E9, 0.0, 2023-07-17 15:08:48.169
95.0, -215.11318863787517, 187500.0, 187500.0, 187500.0, 187500.0, 187500.0, 187500.0, 187500.0, 0.04, -0.02, 1.008, 192.0, 0.0, 0.0, 0.0, 0.0, 0.0, 0.0, 0.0, 0.0, 0.0, 1.689599328169659E9, 0.0, 2023-07-17 15:08:48.169
96.0, -231.87699697935548, 187500.0, 187500.0, 187500.0, 187500.0, 187500.0, 187500.0, 187500.0, 0.04, -0.02, 1.008, 192.0, 0.0, 0.0, 0.0, 0.0, 0.0, 0.0, 0.0, 0.0, 0.0, 1.6895993281697187E9, 0.0, 2023-07-17 15:08:48.169
97.0, -249.51252335459273, 187500.0, 187500.0, 187500.0, 187500.0, 187500.0, 187500.0, 187500.0, 0.036000000000000004, -0.018000000000000002, 1.004, 192.0, 1.0, 32.0, 255.0, 112.0, 31.0, 96.0, 0.0, 0.0, 0.0, 1.6895993281697855E9, 0.0, 2023-07-17 15:08:48.169
98.0, -244.52808434105927, 187500.0, 187500.0, 187500.0, 187500.0, 187500.0, 187500.0, 187500.0, 0.036000000000000004, -0.018000000000000002, 1.004, 192.0, 0.0, 0.0, 0.0, 0.0, 0.0, 0.0, 0.0, 0.0, 0.0, 1.6895993281698515E9, 0.0, 2023-07-17 15:08:48.169
99.0, -223.60685153089184, 187500.0, 187500.0, 187500.0, 187500.0, 187500.0, 187500.0, 187500.0, 0.036000000000000004, -0.018000000000000002, 1.004, 192.0, 0.0, 0.0, 0.0, 0.0, 0.0, 0.0, 0.0, 0.0, 0.0, 1.6895993281699023E9, 0.0, 2023-07-17 15:08:48.169
100.0, -216.29783109400645, 187500.0, 187500.0, 187500.0, 187500.0, 187500.0, 187500.0, 187500.0, 0.036000000000000004, -0.018000000000000002, 1.004, 192.0, 0.0, 0.0, 0.0, 0.0, 0.0, 0.0, 0.0, 0.0, 0.0, 1.6895993281699512E9, 0.0, 2023-07-17 15:08:48.169
101.0, -232.18992140172978, 187500.0, 187500.0, 187500.0, 187500.0, 187500.0, 187500.0, 187500.0, 0.036000000000000004, -0.018000000000000002, 1.004, 192.0, 0.0, 0.0, 0.0, 0.0, 0.0, 0.0, 0.0, 0.0, 0.0, 1.6895993281699953E9, 0.0, 2023-07-17 15:08:48.169
102.0, -249.80309603251175, 187500.0, 187500.0, 187500.0, 187500.0, 187500.0, 187500.0, 187500.0, 0.036000000000000004, -0.018000000000000002, 1.004, 192.0, 0.0, 0.0, 0.0, 0.0, 0.0, 0.0, 0.0, 0.0, 0.0, 1.6895993281700425E9, 0.0, 2023-07-17 15:08:48.170
103.0, -244.6398430633358, 187500.0, 187500.0, 187500.0, 187500.0, 187500.0, 187500.0, 187500.0, 0.036000000000000004, -0.018000000000000002, 1.004, 192.0, 0.0, 0.0, 0.0, 0.0, 0.0, 0.0, 0.0, 0.0, 0.0, 1.689599328170088E9, 0.0, 2023-07-17 15:08:48.170
104.0, -223.04805791950918, 187500.0, 187500.0, 187500.0, 187500.0, 187500.0, 187500.0, 187500.0, 0.036000000000000004, -0.018000000000000002, 1.004, 192.0, 0.0, 0.0, 0.0, 0.0, 0.0, 0.0, 0.0, 0.0, 0.0, 1.6895993281701348E9, 0.0, 2023-07-17 15:08:48.170
105.0, -215.49316829361538, 187500.0, 187500.0, 187500.0, 187500.0, 187500.0, 187500.0, 187500.0, 0.036000000000000004, -0.018000000000000002, 1.004, 192.0, 0.0, 0.0, 0.0, 0.0, 0.0, 0.0, 0.0, 0.0, 0.0, 1.6895993281701803E9, 0.0, 2023-07-17 15:08:48.170
106.0, -231.9217004682661, 187500.0, 187500.0, 187500.0, 187500.0, 187500.0, 187500.0, 187500.0, 0.036000000000000004, -0.018000000000000002, 1.004, 192.0, 0.0, 0.0, 0.0, 0.0, 0.0, 0.0, 0.0, 0.0, 0.0, 1.6895993281702237E9, 0.0, 2023-07-17 15:08:48.170
107.0, -249.60193033241396, 187500.0, 187500.0, 187500.0, 187500.0, 187500.0, 187500.0, 187500.0, 0.032, -0.016, 1.008, 192.0, 1.0, 0.0, 255.0, 128.0, 31.0, 128.0, 0.0, 0.0, 0.0, 1.6895993281702716E9, 0.0, 2023-07-17 15:08:48.170
108.0, -243.87988375185537, 187500.0, 187500.0, 187500.0, 187500.0, 187500.0, 187500.0, 187500.0, 0.032, -0.016, 1.008, 192.0, 0.0, 0.0, 0.0, 0.0, 0.0, 0.0, 0.0, 0.0, 0.0, 1.6895993281703868E9, 0.0, 2023-07-17 15:08:48.170
109.0, -222.7798369860455, 187500.0, 187500.0, 187500.0, 187500.0, 187500.0, 187500.0, 187500.0, 0.032, -0.016, 1.008, 192.0, 0.0, 0.0, 0.0, 0.0, 0.0, 0.0, 0.0, 0.0, 0.0, 1.6895993281704316E9, 0.0, 2023-07-17 15:08:48.170
110.0, -216.02961016054277, 187500.0, 187500.0, 187500.0, 187500.0, 187500.0, 187500.0, 187500.0, 0.032, -0.016, 1.008, 192.0, 0.0, 0.0, 0.0, 0.0, 0.0, 0.0, 0.0, 0.0, 0.0, 1.689599328170476E9, 0.0, 2023-07-17 15:08:48.170
111.0, -232.01110744608732, 187500.0, 187500.0, 187500.0, 187500.0, 187500.0, 187500.0, 187500.0, 0.032, -0.016, 1.008, 192.0, 0.0, 0.0, 0.0, 0.0, 0.0, 0.0, 0.0, 0.0, 0.0, 1.6895993281705184E9, 0.0, 2023-07-17 15:08:48.170
112.0, -249.9819099881542, 187500.0, 187500.0, 187500.0, 187500.0, 187500.0, 187500.0, 187500.0, 0.032, -0.016, 1.008, 192.0, 0.0, 0.0, 0.0, 0.0, 0.0, 0.0, 0.0, 0.0, 0.0, 1.6895993281705637E9, 0.0, 2023-07-17 15:08:48.170
113.0, -244.9304157412548, 187500.0, 187500.0, 187500.0, 187500.0, 187500.0, 187500.0, 187500.0, 0.032, -0.016, 1.008, 192.0, 0.0, 0.0, 0.0, 0.0, 0.0, 0.0, 0.0, 0.0, 0.0, 1.6895993281706097E9, 0.0, 2023-07-17 15:08:48.170
114.0, -221.95282244119915, 187500.0, 187500.0, 187500.0, 187500.0, 187500.0, 187500.0, 187500.0, 0.032, -0.016, 1.008, 192.0, 0.0, 0.0, 0.0, 0.0, 0.0, 0.0, 0.0, 0.0, 0.0, 1.689599328170656E9, 0.0, 2023-07-17 15:08:48.170
115.0, -215.44846480470477, 187500.0, 187500.0, 187500.0, 187500.0, 187500.0, 187500.0, 187500.0, 0.032, -0.016, 1.008, 192.0, 0.0, 0.0, 0.0, 0.0, 0.0, 0.0, 0.0, 0.0, 0.0, 1.6895993281707027E9, 0.0, 2023-07-17 15:08:48.170
116.0, -231.60877604589177, 187500.0, 187500.0, 187500.0, 187500.0, 187500.0, 187500.0, 187500.0, 0.032, -0.016, 1.008, 192.0, 0.0, 0.0, 0.0, 0.0, 0.0, 0.0, 0.0, 0.0, 0.0, 1.6895993281707463E9, 0.0, 2023-07-17 15:08:48.170
117.0, -249.64663382132457, 187500.0, 187500.0, 187500.0, 187500.0, 187500.0, 187500.0, 187500.0, 0.028, -0.018000000000000002, 1.004, 192.0, 0.0, 224.0, 255.0, 112.0, 31.0, 96.0, 0.0, 0.0, 0.0, 1.6895993281708007E9, 0.0, 2023-07-17 15:08:48.170
118.0, -245.19863667471847, 187500.0, 187500.0, 187500.0, 187500.0, 187500.0, 187500.0, 187500.0, 0.028, -0.018000000000000002, 1.004, 192.0, 0.0, 0.0, 0.0, 0.0, 0.0, 0.0, 0.0, 0.0, 0.0, 1.6895993281708517E9, 0.0, 2023-07-17 15:08:48.170
119.0, -223.7856654865343, 187500.0, 187500.0, 187500.0, 187500.0, 187500.0, 187500.0, 187500.0, 0.028, -0.018000000000000002, 1.004, 192.0, 0.0, 0.0, 0.0, 0.0, 0.0, 0.0, 0.0, 0.0, 0.0, 1.6895993281709008E9, 0.0, 2023-07-17 15:08:48.170
120.0, -215.5602235269813, 187500.0, 187500.0, 187500.0, 187500.0, 187500.0, 187500.0, 187500.0, 0.028, -0.018000000000000002, 1.004, 192.0, 0.0, 0.0, 0.0, 0.0, 0.0, 0.0, 0.0, 0.0, 0.0, 1.68959932817095E9, 0.0, 2023-07-17 15:08:48.170
121.0, -231.9217004682661, 187500.0, 187500.0, 187500.0, 187500.0, 187500.0, 187500.0, 187500.0, 0.028, -0.018000000000000002, 1.004, 192.0, 0.0, 0.0, 0.0, 0.0, 0.0, 0.0, 0.0, 0.0, 0.0, 1.6895993286419835E9, 0.0, 2023-07-17 15:08:48.641
122.0, -250.22777917716257, 187500.0, 187500.0, 187500.0, 187500.0, 187500.0, 187500.0, 187500.0, 0.028, -0.018000000000000002, 1.004, 192.0, 0.0, 0.0, 0.0, 0.0, 0.0, 0.0, 0.0, 0.0, 0.0, 1.6895993286421683E9, 0.0, 2023-07-17 15:08:48.642
123.0, -244.5951395744252, 187500.0, 187500.0, 187500.0, 187500.0, 187500.0, 187500.0, 187500.0, 0.028, -0.018000000000000002, 1.004, 192.0, 0.0, 0.0, 0.0, 0.0, 0.0, 0.0, 0.0, 0.0, 0.0, 1.6895993286432588E9, 0.0, 2023-07-17 15:08:48.643
124.0, -223.36098234188347, 187500.0, 187500.0, 187500.0, 187500.0, 187500.0, 187500.0, 187500.0, 0.028, -0.018000000000000002, 1.004, 192.0, 0.0, 0.0, 0.0, 0.0, 0.0, 0.0, 0.0, 0.0, 0.0, 1.689599328643377E9, 0.0, 2023-07-17 15:08:48.643
125.0, -216.18607237172992, 187500.0, 187500.0, 187500.0, 187500.0, 187500.0, 187500.0, 187500.0, 0.028, -0.018000000000000002, 1.004, 192.0, 0.0, 0.0, 0.0, 0.0, 0.0, 0.0, 0.0, 0.0, 0.0, 1.6895993286434624E9, 0.0, 2023-07-17 15:08:48.643
126.0, -231.0499824345091, 187500.0, 187500.0, 187500.0, 187500.0, 187500.0, 187500.0, 187500.0, 0.028, -0.018000000000000002, 1.004, 192.0, 0.0, 0.0, 0.0, 0.0, 0.0, 0.0, 0.0, 0.0, 0.0, 1.689599328643544E9, 0.0, 2023-07-17 15:08:48.643
127.0, -249.31135765449497, 187500.0, 187500.0, 187500.0, 187500.0, 187500.0, 187500.0, 187500.0, 0.034, -0.022, 1.006, 192.0, 1.0, 16.0, 255.0, 80.0, 31.0, 112.0, 0.0, 0.0, 0.0, 1.6895993286436183E9, 0.0, 2023-07-17 15:08:48.643
128.0, -244.6621948077911, 187500.0, 187500.0, 187500.0, 187500.0, 187500.0, 187500.0, 187500.0, 0.034, -0.022, 1.006, 192.0, 0.0, 0.0, 0.0, 0.0, 0.0, 0.0, 0.0, 0.0, 0.0, 1.68959932864368E9, 0.0, 2023-07-17 15:08:48.643
129.0, -223.87507246435553, 187500.0, 187500.0, 187500.0, 187500.0, 187500.0, 187500.0, 187500.0, 0.034, -0.022, 1.006, 192.0, 0.0, 0.0, 0.0, 0.0, 0.0, 0.0, 0.0, 0.0, 0.0, 1.6895993286437397E9, 0.0, 2023-07-17 15:08:48.643
130.0, -216.56605202747014, 187500.0, 187500.0, 187500.0, 187500.0, 187500.0, 187500.0, 187500.0, 0.034, -0.022, 1.006, 192.0, 0.0, 0.0, 0.0, 0.0, 0.0, 0.0, 0.0, 0.0, 0.0, 1.689599328643805E9, 0.0, 2023-07-17 15:08:48.643
131.0, -232.34638361291692, 187500.0, 187500.0, 187500.0, 187500.0, 187500.0, 187500.0, 187500.0, 0.034, -0.022, 1.006, 192.0, 0.0, 0.0, 0.0, 0.0, 0.0, 0.0, 0.0, 0.0, 0.0, 1.689599328643886E9, 0.0, 2023-07-17 15:08:48.643
132.0, -249.33370939895028, 187500.0, 187500.0, 187500.0, 187500.0, 187500.0, 187500.0, 187500.0, 0.034, -0.022, 1.006, 192.0, 0.0, 0.0, 0.0, 0.0, 0.0, 0.0, 0.0, 0.0, 0.0, 1.6895993286439457E9, 0.0, 2023-07-17 15:08:48.643
133.0, -244.21515991868498, 187500.0, 187500.0, 187500.0, 187500.0, 187500.0, 187500.0, 187500.0, 0.034, -0.022, 1.006, 192.0, 0.0, 0.0, 0.0, 0.0, 0.0, 0.0, 0.0, 0.0, 0.0, 1.6895993286439943E9, 0.0, 2023-07-17 15:08:48.643
134.0, -223.4503893197047, 187500.0, 187500.0, 187500.0, 187500.0, 187500.0, 187500.0, 187500.0, 0.034, -0.022, 1.006, 192.0, 0.0, 0.0, 0.0, 0.0, 0.0, 0.0, 0.0, 0.0, 0.0, 1.6895993286440628E9, 0.0, 2023-07-17 15:08:48.644
135.0, -215.62727876034722, 187500.0, 187500.0, 187500.0, 187500.0, 187500.0, 187500.0, 187500.0, 0.034, -0.022, 1.006, 192.0, 0.0, 0.0, 0.0, 0.0, 0.0, 0.0, 0.0, 0.0, 0.0, 1.6895993286441355E9, 0.0, 2023-07-17 15:08:48.644
136.0, -231.47466557915993, 187500.0, 187500.0, 187500.0, 187500.0, 187500.0, 187500.0, 187500.0, 0.034, -0.022, 1.006, 192.0, 0.0, 0.0, 0.0, 0.0, 0.0, 0.0, 0.0, 0.0, 0.0, 1.6895993286441875E9, 0.0, 2023-07-17 15:08:48.644
137.0, -249.57957858795865, 187500.0, 187500.0, 187500.0, 187500.0, 187500.0, 187500.0, 187500.0, 0.032, -0.018000000000000002, 1.008, 192.0, 1.0, 0.0, 255.0, 112.0, 31.0, 128.0, 0.0, 0.0, 0.0, 1.6895993286442692E9, 0.0, 2023-07-17 15:08:48.644
138.0, -244.88571225234418, 187500.0, 187500.0, 187500.0, 187500.0, 187500.0, 187500.0, 187500.0, 0.032, -0.018000000000000002, 1.008, 192.0, 0.0, 0.0, 0.0, 0.0, 0.0, 0.0, 0.0, 0.0, 0.0, 1.6895993286444304E9, 0.0, 2023-07-17 15:08:48.644
139.0, -224.27740386455108, 187500.0, 187500.0, 187500.0, 187500.0, 187500.0, 187500.0, 187500.0, 0.032, -0.018000000000000002, 1.008, 192.0, 0.0, 0.0, 0.0, 0.0, 0.0, 0.0, 0.0, 0.0, 0.0, 1.6895993286444755E9, 0.0, 2023-07-17 15:08:48.644
140.0, -216.61075551638075, 187500.0, 187500.0, 187500.0, 187500.0, 187500.0, 187500.0, 187500.0, 0.032, -0.018000000000000002, 1.008, 192.0, 0.0, 0.0, 0.0, 0.0, 0.0, 0.0, 0.0, 0.0, 0.0, 1.6895993286445189E9, 0.0, 2023-07-17 15:08:48.644
141.0, -232.2569766350957, 187500.0, 187500.0, 187500.0, 187500.0, 187500.0, 187500.0, 187500.0, 0.032, -0.018000000000000002, 1.008, 192.0, 0.0, 0.0, 0.0, 0.0, 0.0, 0.0, 0.0, 0.0, 0.0, 1.6895993286445632E9, 0.0, 2023-07-17 15:08:48.644
142.0, -248.90902625429945, 187500.0, 187500.0, 187500.0, 187500.0, 187500.0, 187500.0, 187500.0, 0.032, -0.018000000000000002, 1.008, 192.0, 0.0, 0.0, 0.0, 0.0, 0.0, 0.0, 0.0, 0.0, 0.0, 1.6895993286446085E9, 0.0, 2023-07-17 15:08:48.644
143.0, -243.65636630730228, 187500.0, 187500.0, 187500.0, 187500.0, 187500.0, 187500.0, 187500.0, 0.032, -0.018000000000000002, 1.008, 192.0, 0.0, 0.0, 0.0, 0.0, 0.0, 0.0, 0.0, 0.0, 0.0, 1.689599328644657E9, 0.0, 2023-07-17 15:08:48.644
144.0, -222.7798369860455, 187500.0, 187500.0, 187500.0, 187500.0, 187500.0, 187500.0, 187500.0, 0.032, -0.018000000000000002, 1.008, 192.0, 0.0, 0.0, 0.0, 0.0, 0.0, 0.0, 0.0, 0.0, 0.0, 1.6895993286447115E9, 0.0, 2023-07-17 15:08:48.644
145.0, -215.71668573816845, 187500.0, 187500.0, 187500.0, 187500.0, 187500.0, 187500.0, 187500.0, 0.032, -0.018000000000000002, 1.008, 192.0, 0.0, 0.0, 0.0, 0.0, 0.0, 0.0, 0.0, 0.0, 0.0, 1.6895993286447659E9, 0.0, 2023-07-17 15:08:48.644
146.0, -231.47466557915993, 187500.0, 187500.0, 187500.0, 187500.0, 187500.0, 187500.0, 187500.0, 0.032, -0.018000000000000002, 1.008, 192.0, 0.0, 0.0, 0.0, 0.0, 0.0, 0.0, 0.0, 0.0, 0.0, 1.6895993286448128E9, 0.0, 2023-07-17 15:08:48.644
147.0, -248.97608148766537, 187500.0, 187500.0, 187500.0, 187500.0, 187500.0, 187500.0, 187500.0, 0.03, -0.018000000000000002, 1.002, 192.0, 0.0, 240.0, 255.0, 112.0, 31.0, 80.0, 0.0, 0.0, 0.0, 1.6895993286448588E9, 0.0, 2023-07-17 15:08:48.644
148.0, -245.2880436525397, 187500.0, 187500.0, 187500.0, 187500.0, 187500.0, 187500.0, 187500.0, 0.03, -0.018000000000000002, 1.002, 192.0, 0.0, 0.0, 0.0, 0.0, 0.0, 0.0, 0.0, 0.0, 0.0, 1.68959932864491E9, 0.0, 2023-07-17 15:08:48.644
149.0, -223.4950928086153, 187500.0, 187500.0, 187500.0, 187500.0, 187500.0, 187500.0, 187500.0, 0.03, -0.018000000000000002, 1.002, 192.0, 0.0, 0.0, 0.0, 0.0, 0.0, 0.0, 0.0, 0.0, 0.0, 1.689599328644961E9, 0.0, 2023-07-17 15:08:48.644
150.0, -215.31435433797293, 187500.0, 187500.0, 187500.0, 187500.0, 187500.0, 187500.0, 187500.0, 0.03, -0.018000000000000002, 1.002, 192.0, 0.0, 0.0, 0.0, 0.0, 0.0, 0.0, 0.0, 0.0, 0.0, 1.6895993286450114E9, 0.0, 2023-07-17 15:08:48.645
151.0, -231.3629068568834, 187500.0, 187500.0, 187500.0, 187500.0, 187500.0, 187500.0, 187500.0, 0.03, -0.018000000000000002, 1.002, 192.0, 0.0, 0.0, 0.0, 0.0, 0.0, 0.0, 0.0, 0.0, 0.0, 1.6895993286450548E9, 0.0, 2023-07-17 15:08:48.645
152.0, -249.33370939895028, 187500.0, 187500.0, 187500.0, 187500.0, 187500.0, 187500.0, 187500.0, 0.03, -0.018000000000000002, 1.002, 192.0, 0.0, 0.0, 0.0, 0.0, 0.0, 0.0, 0.0, 0.0, 0.0, 1.6895993286451025E9, 0.0, 2023-07-17 15:08:48.645
153.0, -245.600968074914, 187500.0, 187500.0, 187500.0, 187500.0, 187500.0, 187500.0, 187500.0, 0.03, -0.018000000000000002, 1.002, 192.0, 0.0, 0.0, 0.0, 0.0, 0.0, 0.0, 0.0, 0.0, 0.0, 1.6895993286452436E9, 0.0, 2023-07-17 15:08:48.645
154.0, -223.67390676425777, 187500.0, 187500.0, 187500.0, 187500.0, 187500.0, 187500.0, 187500.0, 0.03, -0.018000000000000002, 1.002, 192.0, 0.0, 0.0, 0.0, 0.0, 0.0, 0.0, 0.0, 0.0, 0.0, 1.689599328645294E9, 0.0, 2023-07-17 15:08:48.645
155.0, -215.26965084906232, 187500.0, 187500.0, 187500.0, 187500.0, 187500.0, 187500.0, 187500.0, 0.03, -0.018000000000000002, 1.002, 192.0, 0.0, 0.0, 0.0, 0.0, 0.0, 0.0, 0.0, 0.0, 0.0, 1.6895993286453428E9, 0.0, 2023-07-17 15:08:48.645
156.0, -231.16174115678564, 187500.0, 187500.0, 187500.0, 187500.0, 187500.0, 187500.0, 187500.0, 0.03, -0.018000000000000002, 1.002, 192.0, 0.0, 0.0, 0.0, 0.0, 0.0, 0.0, 0.0, 0.0, 0.0, 1.689599328645438E9, 0.0, 2023-07-17 15:08:48.645
157.0, -248.66315706529107, 187500.0, 187500.0, 187500.0, 187500.0, 187500.0, 187500.0, 187500.0, 0.026000000000000002, -0.018000000000000002, 1.004, 192.0, 0.0, 208.0, 255.0, 112.0, 31.0, 96.0, 0.0, 0.0, 0.0, 1.6895993286454856E9, 0.0, 2023-07-17 15:08:48.645
158.0, -245.10922969689724, 187500.0, 187500.0, 187500.0, 187500.0, 187500.0, 187500.0, 187500.0, 0.026000000000000002, -0.018000000000000002, 1.004, 192.0, 0.0, 0.0, 0.0, 0.0, 0.0, 0.0, 0.0, 0.0, 0.0, 1.6895993286455324E9, 0.0, 2023-07-17 15:08:48.645
159.0, -224.16564514227454, 187500.0, 187500.0, 187500.0, 187500.0, 187500.0, 187500.0, 187500.0, 0.026000000000000002, -0.018000000000000002, 1.004, 192.0, 0.0, 0.0, 0.0, 0.0, 0.0, 0.0, 0.0, 0.0, 0.0, 1.68959932864558E9, 0.0, 2023-07-17 15:08:48.645
160.0, -216.36488632737237, 187500.0, 187500.0, 187500.0, 187500.0, 187500.0, 187500.0, 187500.0, 0.026000000000000002, -0.018000000000000002, 1.004, 192.0, 0.0, 0.0, 0.0, 0.0, 0.0, 0.0, 0.0, 0.0, 0.0, 1.6895993286456275E9, 0.0, 2023-07-17 15:08:48.645
161.0, -232.3016801240063, 187500.0, 187500.0, 187500.0, 187500.0, 187500.0, 187500.0, 187500.0, 0.026000000000000002, -0.018000000000000002, 1.004, 192.0, 0.0, 0.0, 0.0, 0.0, 0.0, 0.0, 0.0, 0.0, 0.0, 1.6895993286456745E9, 0.0, 2023-07-17 15:08:48.645
162.0, -249.24430242112905, 187500.0, 187500.0, 187500.0, 187500.0, 187500.0, 187500.0, 187500.0, 0.026000000000000002, -0.018000000000000002, 1.004, 192.0, 0.0, 0.0, 0.0, 0.0, 0.0, 0.0, 0.0, 0.0, 0.0, 1.6895993286457212E9, 0.0, 2023-07-17 15:08:48.645
163.0, -245.46685760818215, 187500.0, 187500.0, 187500.0, 187500.0, 187500.0, 187500.0, 187500.0, 0.026000000000000002, -0.018000000000000002, 1.004, 192.0, 0.0, 0.0, 0.0, 0.0, 0.0, 0.0, 0.0, 0.0, 0.0, 1.6895993286457698E9, 0.0, 2023-07-17 15:08:48.645
164.0, -223.51744455307062, 187500.0, 187500.0, 187500.0, 187500.0, 187500.0, 187500.0, 187500.0, 0.026000000000000002, -0.018000000000000002, 1.004, 192.0, 0.0, 0.0, 0.0, 0.0, 0.0, 0.0, 0.0, 0.0, 0.0, 1.6895993286458185E9, 0.0, 2023-07-17 15:08:48.645
165.0, -215.71668573816845, 187500.0, 187500.0, 187500.0, 187500.0, 187500.0, 187500.0, 187500.0, 0.026000000000000002, -0.018000000000000002, 1.004, 192.0, 0.0, 0.0, 0.0, 0.0, 0.0, 0.0, 0.0, 0.0, 0.0, 1.6895993286458669E9, 0.0, 2023-07-17 15:08:48.645
166.0, -232.3016801240063, 187500.0, 187500.0, 187500.0, 187500.0, 187500.0, 187500.0, 187500.0, 0.026000000000000002, -0.018000000000000002, 1.004, 192.0, 0.0, 0.0, 0.0, 0.0, 0.0, 0.0, 0.0, 0.0, 0.0, 1.6895993286459155E9, 0.0, 2023-07-17 15:08:48.645
167.0, -249.02078497657598, 187500.0, 187500.0, 187500.0, 187500.0, 187500.0, 187500.0, 187500.0, 0.026000000000000002, -0.014, 1.008, 192.0, 0.0, 208.0, 255.0, 144.0, 31.0, 128.0, 0.0, 0.0, 0.0, 1.6895993286459637E9, 0.0, 2023-07-17 15:08:48.645
168.0, -244.2822151520509, 187500.0, 187500.0, 187500.0, 187500.0, 187500.0, 187500.0, 187500.0, 0.026000000000000002, -0.014, 1.008, 192.0, 0.0, 0.0, 0.0, 0.0, 0.0, 0.0, 0.0, 0.0, 0.0, 1.689599328646017E9, 0.0, 2023-07-17 15:08:48.646
169.0, -223.89742420881083, 187500.0, 187500.0, 187500.0, 187500.0, 187500.0, 187500.0, 187500.0, 0.026000000000000002, -0.014, 1.008, 192.0, 0.0, 0.0, 0.0, 0.0, 0.0, 0.0, 0.0, 0.0, 0.0, 1.689599328646281E9, 0.0, 2023-07-17 15:08:48.646
170.0, -216.52134853855952, 187500.0, 187500.0, 187500.0, 187500.0, 187500.0, 187500.0, 187500.0, 0.026000000000000002, -0.014, 1.008, 192.0, 0.0, 0.0, 0.0, 0.0, 0.0, 0.0, 0.0, 0.0, 0.0, 1.6895993286463225E9, 0.0, 2023-07-17 15:08:48.646
171.0, -231.31820336797279, 187500.0, 187500.0, 187500.0, 187500.0, 187500.0, 187500.0, 187500.0, 0.026000000000000002, -0.014, 1.008, 192.0, 0.0, 0.0, 0.0, 0.0, 0.0, 0.0, 0.0, 0.0, 0.0, 1.689599328646571E9, 0.0, 2023-07-17 15:08:48.646
172.0, -248.81961927647822, 187500.0, 187500.0, 187500.0, 187500.0, 187500.0, 187500.0, 187500.0, 0.026000000000000002, -0.014, 1.008, 192.0, 0.0, 0.0, 0.0, 0.0, 0.0, 0.0, 0.0, 0.0, 0.0, 1.6895993286466372E9, 0.0, 2023-07-17 15:08:48.646
173.0, -244.55043608551458, 187500.0, 187500.0, 187500.0, 187500.0, 187500.0, 187500.0, 187500.0, 0.026000000000000002, -0.014, 1.008, 192.0, 0.0, 0.0, 0.0, 0.0, 0.0, 0.0, 0.0, 0.0, 0.0, 1.6895993286466873E9, 0.0, 2023-07-17 15:08:48.646
174.0, -223.51744455307062, 187500.0, 187500.0, 187500.0, 187500.0, 187500.0, 187500.0, 187500.0, 0.026000000000000002, -0.014, 1.008, 192.0, 0.0, 0.0, 0.0, 0.0, 0.0, 0.0, 0.0, 0.0, 0.0, 1.689599328646734E9, 0.0, 2023-07-17 15:08:48.646
175.0, -215.71668573816845, 187500.0, 187500.0, 187500.0, 187500.0, 187500.0, 187500.0, 187500.0, 0.026000000000000002, -0.014, 1.008, 192.0, 0.0, 0.0, 0.0, 0.0, 0.0, 0.0, 0.0, 0.0, 0.0, 1.6895993286467855E9, 0.0, 2023-07-17 15:08:48.646
176.0, -231.27349987906217, 187500.0, 187500.0, 187500.0, 187500.0, 187500.0, 187500.0, 187500.0, 0.026000000000000002, -0.014, 1.008, 192.0, 0.0, 0.0, 0.0, 0.0, 0.0, 0.0, 0.0, 0.0, 0.0, 1.6895993286468372E9, 0.0, 2023-07-17 15:08:48.646
177.0, -248.30552915400617, 187500.0, 187500.0, 187500.0, 187500.0, 187500.0, 187500.0, 187500.0, 0.03, -0.018000000000000002, 1.008, 192.0, 0.0, 240.0, 255.0, 112.0, 31.0, 128.0, 0.0, 0.0, 0.0, 1.6895993286469016E9, 0.0, 2023-07-17 15:08:48.646
178.0, -245.10922969689724, 187500.0, 187500.0, 187500.0, 187500.0, 187500.0, 187500.0, 187500.0, 0.03, -0.018000000000000002, 1.008, 192.0, 0.0, 0.0, 0.0, 0.0, 0.0, 0.0, 0.0, 0.0, 0.0, 1.6895993286469567E9, 0.0, 2023-07-17 15:08:48.646
179.0, -224.43386607573822, 187500.0, 187500.0, 187500.0, 187500.0, 187500.0, 187500.0, 187500.0, 0.03, -0.018000000000000002, 1.008, 192.0, 0.0, 0.0, 0.0, 0.0, 0.0, 0.0, 0.0, 0.0, 0.0, 1.6895993286470044E9, 0.0, 2023-07-17 15:08:48.647
180.0, -215.78374097153437, 187500.0, 187500.0, 187500.0, 187500.0, 187500.0, 187500.0, 187500.0, 0.03, -0.018000000000000002, 1.008, 192.0, 0.0, 0.0, 0.0, 0.0, 0.0, 0.0, 0.0, 0.0, 0.0, 1.6895993286470559E9, 0.0, 2023-07-17 15:08:48.647
181.0, -230.60294754540297, 187500.0, 187500.0, 187500.0, 187500.0, 187500.0, 187500.0, 187500.0, 0.03, -0.018000000000000002, 1.008, 192.0, 0.0, 0.0, 0.0, 0.0, 0.0, 0.0, 0.0, 0.0, 0.0, 1.6895993286471367E9, 0.0, 2023-07-17 15:08:48.647
182.0, -248.7078605542017, 187500.0, 187500.0, 187500.0, 187500.0, 187500.0, 187500.0, 187500.0, 0.03, -0.018000000000000002, 1.008, 192.0, 0.0, 0.0, 0.0, 0.0, 0.0, 0.0, 0.0, 0.0, 0.0, 1.6895993286472092E9, 0.0, 2023-07-17 15:08:48.647
183.0, -245.77978203055645, 187500.0, 187500.0, 187500.0, 187500.0, 187500.0, 187500.0, 187500.0, 0.03, -0.018000000000000002, 1.008, 192.0, 0.0, 0.0, 0.0, 0.0, 0.0, 0.0, 0.0, 0.0, 0.0, 1.689599328647259E9, 0.0, 2023-07-17 15:08:48.647
184.0, -224.29975560900638, 187500.0, 187500.0, 187500.0, 187500.0, 187500.0, 187500.0, 187500.0, 0.03, -0.018000000000000002, 1.008, 192.0, 0.0, 0.0, 0.0, 0.0, 0.0, 0.0, 0.0, 0.0, 0.0, 1.6895993286475823E9, 0.0, 2023-07-17 15:08:48.647
185.0, -215.38140957133885, 187500.0, 187500.0, 187500.0, 187500.0, 187500.0, 187500.0, 187500.0, 0.03, -0.018000000000000002, 1.008, 192.0, 0.0, 0.0, 0.0, 0.0, 0.0, 0.0, 0.0, 0.0, 0.0, 1.689599328647632E9, 0.0, 2023-07-17 15:08:48.647
186.0, -230.87116847886665, 187500.0, 187500.0, 187500.0, 187500.0, 187500.0, 187500.0, 187500.0, 0.036000000000000004, -0.022, 1.01, 192.0, 1.0, 32.0, 255.0, 80.0, 31.0, 144.0, 0.0, 0.0, 0.0, 1.689599328647683E9, 0.0, 2023-07-17 15:08:48.647
187.0, -249.24430242112905, 187500.0, 187500.0, 187500.0, 187500.0, 187500.0, 187500.0, 187500.0, 0.036000000000000004, -0.022, 1.01, 192.0, 0.0, 0.0, 0.0, 0.0, 0.0, 0.0, 0.0, 0.0, 0.0, 1.6895993286477325E9, 0.0, 2023-07-17 15:08:48.647
188.0, -246.04800296402016, 187500.0, 187500.0, 187500.0, 187500.0, 187500.0, 187500.0, 187500.0, 0.036000000000000004, -0.022, 1.01, 192.0, 0.0, 0.0, 0.0, 0.0, 0.0, 0.0, 0.0, 0.0, 0.0, 1.689599328647781E9, 0.0, 2023-07-17 15:08:48.647
189.0, -223.67390676425777, 187500.0, 187500.0, 187500.0, 187500.0, 187500.0, 187500.0, 187500.0, 0.036000000000000004, -0.022, 1.01, 192.0, 0.0, 0.0, 0.0, 0.0, 0.0, 0.0, 0.0, 0.0, 0.0, 1.689599328647832E9, 0.0, 2023-07-17 15:08:48.647
190.0, -215.49316829361538, 187500.0, 187500.0, 187500.0, 187500.0, 187500.0, 187500.0, 187500.0, 0.036000000000000004, -0.022, 1.01, 192.0, 0.0, 0.0, 0.0, 0.0, 0.0, 0.0, 0.0, 0.0, 0.0, 1.6895993286480057E9, 0.0, 2023-07-17 15:08:48.648
191.0, -231.9217004682661, 187500.0, 187500.0, 187500.0, 187500.0, 187500.0, 187500.0, 187500.0, 0.036000000000000004, -0.022, 1.01, 192.0, 0.0, 0.0, 0.0, 0.0, 0.0, 0.0, 0.0, 0.0, 0.0, 1.6895993286480913E9, 0.0, 2023-07-17 15:08:48.648
192.0, -250.0042617326095, 187500.0, 187500.0, 187500.0, 187500.0, 187500.0, 187500.0, 187500.0, 0.036000000000000004, -0.022, 1.01, 192.0, 0.0, 0.0, 0.0, 0.0, 0.0, 0.0, 0.0, 0.0, 0.0, 1.6895993286481457E9, 0.0, 2023-07-17 15:08:48.648
193.0, -245.5786163304587, 187500.0, 187500.0, 187500.0, 187500.0, 187500.0, 187500.0, 187500.0, 0.036000000000000004, -0.022, 1.01, 192.0, 0.0, 0.0, 0.0, 0.0, 0.0, 0.0, 0.0, 0.0, 0.0, 1.6895993286481948E9, 0.0, 2023-07-17 15:08:48.648
194.0, -225.23852887612927, 187500.0, 187500.0, 187500.0, 187500.0, 187500.0, 187500.0, 187500.0, 0.036000000000000004, -0.022, 1.01, 192.0, 0.0, 0.0, 0.0, 0.0, 0.0, 0.0, 0.0, 0.0, 0.0, 1.689599328648244E9, 0.0, 2023-07-17 15:08:48.648
195.0, -216.34253458291707, 187500.0, 187500.0, 187500.0, 187500.0, 187500.0, 187500.0, 187500.0, 0.036000000000000004, -0.022, 1.01, 192.0, 0.0, 0.0, 0.0, 0.0, 0.0, 0.0, 0.0, 0.0, 0.0, 1.6895993286482933E9, 0.0, 2023-07-17 15:08:48.648
196.0, -230.7370580121348, 187500.0, 187500.0, 187500.0, 187500.0, 187500.0, 187500.0, 187500.0, 0.04, -0.022, 1.012, 192.0, 1.0, 64.0, 255.0, 80.0, 31.0, 160.0, 0.0, 0.0, 0.0, 1.6895993286483524E9, 0.0, 2023-07-17 15:08:48.648
197.0, -248.97608148766537, 187500.0, 187500.0, 187500.0, 187500.0, 187500.0, 187500.0, 187500.0, 0.04, -0.022, 1.012, 192.0, 0.0, 0.0, 0.0, 0.0, 0.0, 0.0, 0.0, 0.0, 0.0, 1.6895993286484053E9, 0.0, 2023-07-17 15:08:48.648
198.0, -245.46685760818215, 187500.0, 187500.0, 187500.0, 187500.0, 187500.0, 187500.0, 187500.0, 0.04, -0.022, 1.012, 192.0, 0.0, 0.0, 0.0, 0.0, 0.0, 0.0, 0.0, 0.0, 0.0, 1.6895993286484597E9, 0.0, 2023-07-17 15:08:48.648
199.0, -225.0373631760315, 187500.0, 187500.0, 187500.0, 187500.0, 187500.0, 187500.0, 187500.0, 0.04, -0.022, 1.012, 192.0, 0.0, 0.0, 0.0, 0.0, 0.0, 0.0, 0.0, 0.0, 0.0, 1.6895993286485825E9, 0.0, 2023-07-17 15:08:48.648
200.0, -216.1637206272746, 187500.0, 187500.0, 187500.0, 187500.0, 187500.0, 187500.0, 187500.0, 0.04, -0.022, 1.012, 192.0, 0.0, 0.0, 0.0, 0.0, 0.0, 0.0, 0.0, 0.0, 0.0, 1.689599328648634E9, 0.0, 2023-07-17 15:08:48.648
201.0, -231.7205347681683, 187500.0, 187500.0, 187500.0, 187500.0, 187500.0, 187500.0, 187500.0, 0.04, -0.022, 1.012, 192.0, 0.0, 0.0, 0.0, 0.0, 0.0, 0.0, 0.0, 0.0, 0.0, 1.6895993286486845E9, 0.0, 2023-07-17 15:08:48.648
202.0, -249.80309603251175, 187500.0, 187500.0, 187500.0, 187500.0, 187500.0, 187500.0, 187500.0, 0.04, -0.022, 1.012, 192.0, 0.0, 0.0, 0.0, 0.0, 0.0, 0.0, 0.0, 0.0, 0.0, 1.6895993286487353E9, 0.0, 2023-07-17 15:08:48.648
203.0, -244.68454655224642, 187500.0, 187500.0, 187500.0, 187500.0, 187500.0, 187500.0, 187500.0, 0.04, -0.022, 1.012, 192.0, 0.0, 0.0, 0.0, 0.0, 0.0, 0.0, 0.0, 0.0, 0.0, 1.6895993286487837E9, 0.0, 2023-07-17 15:08:48.648
204.0, -224.56797654247006, 187500.0, 187500.0, 187500.0, 187500.0, 187500.0, 187500.0, 187500.0, 0.04, -0.022, 1.012, 192.0, 0.0, 0.0, 0.0, 0.0, 0.0, 0.0, 0.0, 0.0, 0.0, 1.6895993286488273E9, 0.0, 2023-07-17 15:08:48.648
205.0, -215.82844446044498, 187500.0, 187500.0, 187500.0, 187500.0, 187500.0, 187500.0, 187500.0, 0.04, -0.022, 1.012, 192.0, 0.0, 0.0, 0.0, 0.0, 0.0, 0.0, 0.0, 0.0, 0.0, 1.6895993286488724E9, 0.0, 2023-07-17 15:08:48.648
206.0, -231.20644464569625, 187500.0, 187500.0, 187500.0, 187500.0, 187500.0, 187500.0, 187500.0, 0.04, -0.016, 1.01, 192.0, 1.0, 64.0, 255.0, 128.0, 31.0, 144.0, 0.0, 0.0, 0.0, 1.6895993286489177E9, 0.0, 2023-07-17 15:08:48.648
207.0, -248.68550880974638, 187500.0, 187500.0, 187500.0, 187500.0, 187500.0, 187500.0, 187500.0, 0.04, -0.016, 1.01, 192.0, 0.0, 0.0, 0.0, 0.0, 0.0, 0.0, 0.0, 0.0, 0.0, 1.6895993286489675E9, 0.0, 2023-07-17 15:08:48.648
208.0, -244.9974709746207, 187500.0, 187500.0, 187500.0, 187500.0, 187500.0, 187500.0, 187500.0, 0.04, -0.016, 1.01, 192.0, 0.0, 0.0, 0.0, 0.0, 0.0, 0.0, 0.0, 0.0, 0.0, 1.6895993286490133E9, 0.0, 2023-07-17 15:08:48.649
209.0, -223.8303689754449, 187500.0, 187500.0, 187500.0, 187500.0, 187500.0, 187500.0, 187500.0, 0.04, -0.016, 1.01, 192.0, 0.0, 0.0, 0.0, 0.0, 0.0, 0.0, 0.0, 0.0, 0.0, 1.689599328649062E9, 0.0, 2023-07-17 15:08:48.649
210.0, -216.0966653939087, 187500.0, 187500.0, 187500.0, 187500.0, 187500.0, 187500.0, 187500.0, 0.04, -0.016, 1.01, 192.0, 0.0, 0.0, 0.0, 0.0, 0.0, 0.0, 0.0, 0.0, 0.0, 1.68959932864911E9, 0.0, 2023-07-17 15:08:48.649
211.0, -231.16174115678564, 187500.0, 187500.0, 187500.0, 187500.0, 187500.0, 187500.0, 187500.0, 0.04, -0.016, 1.01, 192.0, 0.0, 0.0, 0.0, 0.0, 0.0, 0.0, 0.0, 0.0, 0.0, 1.689599328649158E9, 0.0, 2023-07-17 15:08:48.649
212.0, -248.4619913651933, 187500.0, 187500.0, 187500.0, 187500.0, 187500.0, 187500.0, 187500.0, 0.04, -0.016, 1.01, 192.0, 0.0, 0.0, 0.0, 0.0, 0.0, 0.0, 0.0, 0.0, 0.0, 1.689599328649206E9, 0.0, 2023-07-17 15:08:48.649
213.0, -244.88571225234418, 187500.0, 187500.0, 187500.0, 187500.0, 187500.0, 187500.0, 187500.0, 0.04, -0.016, 1.01, 192.0, 0.0, 0.0, 0.0, 0.0, 0.0, 0.0, 0.0, 0.0, 0.0, 1.6895993286492543E9, 0.0, 2023-07-17 15:08:48.649
214.0, -224.61268003138068, 187500.0, 187500.0, 187500.0, 187500.0, 187500.0, 187500.0, 187500.0, 0.04, -0.016, 1.01, 192.0, 0.0, 0.0, 0.0, 0.0, 0.0, 0.0, 0.0, 0.0, 0.0, 1.689599328649374E9, 0.0, 2023-07-17 15:08:48.649
215.0, -216.1413688828193, 187500.0, 187500.0, 187500.0, 187500.0, 187500.0, 187500.0, 187500.0, 0.04, -0.016, 1.01, 192.0, 0.0, 0.0, 0.0, 0.0, 0.0, 0.0, 0.0, 0.0, 0.0, 1.6895993286494372E9, 0.0, 2023-07-17 15:08:48.649
216.0, -231.27349987906217, 187500.0, 187500.0, 187500.0, 187500.0, 187500.0, 187500.0, 187500.0, 0.034, -0.02, 1.008, 192.0, 1.0, 16.0, 255.0, 96.0, 31.0, 128.0, 0.0, 0.0, 0.0, 1.6895993286494846E9, 0.0, 2023-07-17 15:08:48.649
217.0, -249.0431367210313, 187500.0, 187500.0, 187500.0, 187500.0, 187500.0, 187500.0, 187500.0, 0.034, -0.02, 1.008, 192.0, 0.0, 0.0, 0.0, 0.0, 0.0, 0.0, 0.0, 0.0, 0.0, 1.689599328649534E9, 0.0, 2023-07-17 15:08:48.649
218.0, -245.69037505273522, 187500.0, 187500.0, 187500.0, 187500.0, 187500.0, 187500.0, 187500.0, 0.034, -0.02, 1.008, 192.0, 0.0, 0.0, 0.0, 0.0, 0.0, 0.0, 0.0, 0.0, 0.0, 1.68959932864958E9, 0.0, 2023-07-17 15:08:48.649
219.0, -224.23270037564046, 187500.0, 187500.0, 187500.0, 187500.0, 187500.0, 187500.0, 187500.0, 0.034, -0.02, 1.008, 192.0, 0.0, 0.0, 0.0, 0.0, 0.0, 0.0, 0.0, 0.0, 0.0, 1.689599328649627E9, 0.0, 2023-07-17 15:08:48.649
220.0, -215.62727876034722, 187500.0, 187500.0, 187500.0, 187500.0, 187500.0, 187500.0, 187500.0, 0.034, -0.02, 1.008, 192.0, 0.0, 0.0, 0.0, 0.0, 0.0, 0.0, 0.0, 0.0, 0.0, 1.6895993286496737E9, 0.0, 2023-07-17 15:08:48.649
221.0, -230.42413358976052, 187500.0, 187500.0, 187500.0, 187500.0, 187500.0, 187500.0, 187500.0, 0.034, -0.02, 1.008, 192.0, 0.0, 0.0, 0.0, 0.0, 0.0, 0.0, 0.0, 0.0, 0.0, 1.68959932864972E9, 0.0, 2023-07-17 15:08:48.649
222.0, -248.4619913651933, 187500.0, 187500.0, 187500.0, 187500.0, 187500.0, 187500.0, 187500.0, 0.034, -0.02, 1.008, 192.0, 0.0, 0.0, 0.0, 0.0, 0.0, 0.0, 0.0, 0.0, 0.0, 1.6895993286497667E9, 0.0, 2023-07-17 15:08:48.649
223.0, -245.24334016362909, 187500.0, 187500.0, 187500.0, 187500.0, 187500.0, 187500.0, 187500.0, 0.034, -0.02, 1.008, 192.0, 0.0, 0.0, 0.0, 0.0, 0.0, 0.0, 0.0, 0.0, 0.0, 1.6895993286498165E9, 0.0, 2023-07-17 15:08:48.649
224.0, -224.27740386455108, 187500.0, 187500.0, 187500.0, 187500.0, 187500.0, 187500.0, 187500.0, 0.034, -0.02, 1.008, 192.0, 0.0, 0.0, 0.0, 0.0, 0.0, 0.0, 0.0, 0.0, 0.0, 1.6895993286498682E9, 0.0, 2023-07-17 15:08:48.649
225.0, -216.4766450496489, 187500.0, 187500.0, 187500.0, 187500.0, 187500.0, 187500.0, 187500.0, 0.034, -0.02, 1.008, 192.0, 0.0, 0.0, 0.0, 0.0, 0.0, 0.0, 0.0, 0.0, 0.0, 1.6895993286499157E9, 0.0, 2023-07-17 15:08:48.649
226.0, -231.6758312792577, 187500.0, 187500.0, 187500.0, 187500.0, 187500.0, 187500.0, 187500.0, 0.034, -0.014, 1.006, 192.0, 1.0, 16.0, 255.0, 144.0, 31.0, 112.0, 0.0, 0.0, 0.0, 1.6895993286499612E9, 0.0, 2023-07-17 15:08:48.649
227.0, -248.84197102093353, 187500.0, 187500.0, 187500.0, 187500.0, 187500.0, 187500.0, 187500.0, 0.034, -0.014, 1.006, 192.0, 0.0, 0.0, 0.0, 0.0, 0.0, 0.0, 0.0, 0.0, 0.0, 1.6895993286518345E9, 0.0, 2023-07-17 15:08:48.651
228.0, -245.891540752833, 187500.0, 187500.0, 187500.0, 187500.0, 187500.0, 187500.0, 187500.0, 0.034, -0.014, 1.006, 192.0, 0.0, 0.0, 0.0, 0.0, 0.0, 0.0, 0.0, 0.0, 0.0, 1.6895993286519022E9, 0.0, 2023-07-17 15:08:48.651
229.0, -224.85854922038905, 187500.0, 187500.0, 187500.0, 187500.0, 187500.0, 187500.0, 187500.0, 0.034, -0.014, 1.006, 192.0, 0.0, 0.0, 0.0, 0.0, 0.0, 0.0, 0.0, 0.0, 0.0, 1.689599328651952E9, 0.0, 2023-07-17 15:08:48.651
230.0, -216.20842411618523, 187500.0, 187500.0, 187500.0, 187500.0, 187500.0, 187500.0, 187500.0, 0.034, -0.014, 1.006, 192.0, 0.0, 0.0, 0.0, 0.0, 0.0, 0.0, 0.0, 0.0, 0.0, 1.6895993286521316E9, 0.0, 2023-07-17 15:08:48.652
231.0, -231.09468592341972, 187500.0, 187500.0, 187500.0, 187500.0, 187500.0, 187500.0, 187500.0, 0.034, -0.014, 1.006, 192.0, 0.0, 0.0, 0.0, 0.0, 0.0, 0.0, 0.0, 0.0, 0.0, 1.6895993286521804E9, 0.0, 2023-07-17 15:08:48.652
232.0, -249.31135765449497, 187500.0, 187500.0, 187500.0, 187500.0, 187500.0, 187500.0, 187500.0, 0.034, -0.014, 1.006, 192.0, 0.0, 0.0, 0.0, 0.0, 0.0, 0.0, 0.0, 0.0, 0.0, 1.689599328652228E9, 0.0, 2023-07-17 15:08:48.652
233.0, -245.310395396995, 187500.0, 187500.0, 187500.0, 187500.0, 187500.0, 187500.0, 187500.0, 0.034, -0.014, 1.006, 192.0, 0.0, 0.0, 0.0, 0.0, 0.0, 0.0, 0.0, 0.0, 0.0, 1.6895993286522753E9, 0.0, 2023-07-17 15:08:48.652
234.0, -223.51744455307062, 187500.0, 187500.0, 187500.0, 187500.0, 187500.0, 187500.0, 187500.0, 0.034, -0.014, 1.006, 192.0, 0.0, 0.0, 0.0, 0.0, 0.0, 0.0, 0.0, 0.0, 0.0, 1.6895993286523228E9, 0.0, 2023-07-17 15:08:48.652
235.0, -215.49316829361538, 187500.0, 187500.0, 187500.0, 187500.0, 187500.0, 187500.0, 187500.0, 0.034, -0.014, 1.006, 192.0, 0.0, 0.0, 0.0, 0.0, 0.0, 0.0, 0.0, 0.0, 0.0, 1.6895993286523774E9, 0.0, 2023-07-17 15:08:48.652
236.0, -231.58642430143647, 187500.0, 187500.0, 187500.0, 187500.0, 187500.0, 187500.0, 187500.0, 0.036000000000000004, -0.016, 1.014, 192.0, 1.0, 32.0, 255.0, 128.0, 31.0, 176.0, 0.0, 0.0, 0.0, 1.6895993286524255E9, 0.0, 2023-07-17 15:08:48.652
237.0, -248.90902625429945, 187500.0, 187500.0, 187500.0, 187500.0, 187500.0, 187500.0, 187500.0, 0.036000000000000004, -0.016, 1.014, 192.0, 0.0, 0.0, 0.0, 0.0, 0.0, 0.0, 0.0, 0.0, 0.0, 1.689599328652476E9, 0.0, 2023-07-17 15:08:48.652
238.0, -246.38327913084976, 187500.0, 187500.0, 187500.0, 187500.0, 187500.0, 187500.0, 187500.0, 0.036000000000000004, -0.016, 1.014, 192.0, 0.0, 0.0, 0.0, 0.0, 0.0, 0.0, 0.0, 0.0, 0.0, 1.6895993286525235E9, 0.0, 2023-07-17 15:08:48.652
239.0, -225.23852887612927, 187500.0, 187500.0, 187500.0, 187500.0, 187500.0, 187500.0, 187500.0, 0.036000000000000004, -0.016, 1.014, 192.0, 0.0, 0.0, 0.0, 0.0, 0.0, 0.0, 0.0, 0.0, 0.0, 1.6895993286525717E9, 0.0, 2023-07-17 15:08:48.652
240.0, -215.71668573816845, 187500.0, 187500.0, 187500.0, 187500.0, 187500.0, 187500.0, 187500.0, 0.036000000000000004, -0.016, 1.014, 192.0, 0.0, 0.0, 0.0, 0.0, 0.0, 0.0, 0.0, 0.0, 0.0, 1.6895993286526191E9, 0.0, 2023-07-17 15:08:48.652
241.0, -231.47466557915993, 187500.0, 187500.0, 187500.0, 187500.0, 187500.0, 187500.0, 187500.0, 0.036000000000000004, -0.016, 1.014, 192.0, 0.0, 0.0, 0.0, 0.0, 0.0, 0.0, 0.0, 0.0, 0.0, 1.6895993291218183E9, 0.0, 2023-07-17 15:08:49.121
242.0, -248.68550880974638, 187500.0, 187500.0, 187500.0, 187500.0, 187500.0, 187500.0, 187500.0, 0.036000000000000004, -0.016, 1.014, 192.0, 0.0, 0.0, 0.0, 0.0, 0.0, 0.0, 0.0, 0.0, 0.0, 1.68959932912199E9, 0.0, 2023-07-17 15:08:49.121
243.0, -245.42215411927154, 187500.0, 187500.0, 187500.0, 187500.0, 187500.0, 187500.0, 187500.0, 0.036000000000000004, -0.016, 1.014, 192.0, 0.0, 0.0, 0.0, 0.0, 0.0, 0.0, 0.0, 0.0, 0.0, 1.6895993291221144E9, 0.0, 2023-07-17 15:08:49.122
244.0, -224.25505212009577, 187500.0, 187500.0, 187500.0, 187500.0, 187500.0, 187500.0, 187500.0, 0.036000000000000004, -0.016, 1.014, 192.0, 0.0, 0.0, 0.0, 0.0, 0.0, 0.0, 0.0, 0.0, 0.0, 1.6895993291221933E9, 0.0, 2023-07-17 15:08:49.122
245.0, -215.69433399371314, 187500.0, 187500.0, 187500.0, 187500.0, 187500.0, 187500.0, 187500.0, 0.036000000000000004, -0.016, 1.014, 192.0, 0.0, 0.0, 0.0, 0.0, 0.0, 0.0, 0.0, 0.0, 0.0, 1.6895993291225305E9, 0.0, 2023-07-17 15:08:49.122
246.0, -231.13938941233033, 187500.0, 187500.0, 187500.0, 187500.0, 187500.0, 187500.0, 187500.0, 0.034, -0.02, 1.014, 192.0, 1.0, 16.0, 255.0, 96.0, 31.0, 176.0, 0.0, 0.0, 0.0, 1.6895993291225767E9, 0.0, 2023-07-17 15:08:49.122
247.0, -249.02078497657598, 187500.0, 187500.0, 187500.0, 187500.0, 187500.0, 187500.0, 187500.0, 0.034, -0.02, 1.014, 192.0, 0.0, 0.0, 0.0, 0.0, 0.0, 0.0, 0.0, 0.0, 0.0, 1.6895993291226273E9, 0.0, 2023-07-17 15:08:49.122
248.0, -246.24916866411792, 187500.0, 187500.0, 187500.0, 187500.0, 187500.0, 187500.0, 187500.0, 0.034, -0.02, 1.014, 192.0, 0.0, 0.0, 0.0, 0.0, 0.0, 0.0, 0.0, 0.0, 0.0, 1.6895993291226733E9, 0.0, 2023-07-17 15:08:49.122
249.0, -224.90325270929966, 187500.0, 187500.0, 187500.0, 187500.0, 187500.0, 187500.0, 187500.0, 0.034, -0.02, 1.014, 192.0, 0.0, 0.0, 0.0, 0.0, 0.0, 0.0, 0.0, 0.0, 0.0, 1.6895993291227217E9, 0.0, 2023-07-17 15:08:49.122
250.0, -215.8954996938109, 187500.0, 187500.0, 187500.0, 187500.0, 187500.0, 187500.0, 187500.0, 0.034, -0.02, 1.014, 192.0, 0.0, 0.0, 0.0, 0.0, 0.0, 0.0, 0.0, 0.0, 0.0, 1.6895993291227682E9, 0.0, 2023-07-17 15:08:49.122
251.0, -231.25114813460686, 187500.0, 187500.0, 187500.0, 187500.0, 187500.0, 187500.0, 187500.0, 0.034, -0.02, 1.014, 192.0, 0.0, 0.0, 0.0, 0.0, 0.0, 0.0, 0.0, 0.0, 0.0, 1.689599329122814E9, 0.0, 2023-07-17 15:08:49.122
252.0, -248.79726753202291, 187500.0, 187500.0, 187500.0, 187500.0, 187500.0, 187500.0, 187500.0, 0.034, -0.02, 1.014, 192.0, 0.0, 0.0, 0.0, 0.0, 0.0, 0.0, 0.0, 0.0, 0.0, 1.6895993291228604E9, 0.0, 2023-07-17 15:08:49.122
253.0, -245.77978203055645, 187500.0, 187500.0, 187500.0, 187500.0, 187500.0, 187500.0, 187500.0, 0.034, -0.02, 1.014, 192.0, 0.0, 0.0, 0.0, 0.0, 0.0, 0.0, 0.0, 0.0, 0.0, 1.6895993291229064E9, 0.0, 2023-07-17 15:08:49.122
254.0, -225.0150114315762, 187500.0, 187500.0, 187500.0, 187500.0, 187500.0, 187500.0, 187500.0, 0.034, -0.02, 1.014, 192.0, 0.0, 0.0, 0.0, 0.0, 0.0, 0.0, 0.0, 0.0, 0.0, 1.6895993291229532E9, 0.0, 2023-07-17 15:08:49.122
255.0, -215.73903748262376, 187500.0, 187500.0, 187500.0, 187500.0, 187500.0, 187500.0, 187500.0, 0.034, -0.02, 1.014, 192.0, 0.0, 0.0, 0.0, 0.0, 0.0, 0.0, 0.0, 0.0, 0.0, 1.6895993291229968E9, 0.0, 2023-07-17 15:08:49.122
0.0, -231.09468592341972, 187500.0, 187500.0, 187500.0, 187500.0, 187500.0, 187500.0, 187500.0, 0.034, -0.016, 1.004, 192.0, 1.0, 16.0, 255.0, 128.0, 31.0, 96.0, 0.0, 0.0, 0.0, 1.6895993291230445E9, 0.0, 2023-07-17 15:08:49.123
1.0, -248.55139834301454, 187500.0, 187500.0, 187500.0, 187500.0, 187500.0, 187500.0, 187500.0, 0.034, -0.016, 1.004, 192.0, 0.0, 0.0, 0.0, 0.0, 0.0, 0.0, 0.0, 0.0, 0.0, 1.6895993291230967E9, 0.0, 2023-07-17 15:08:49.123
2.0, -245.8244855194671, 187500.0, 187500.0, 187500.0, 187500.0, 187500.0, 187500.0, 187500.0, 0.034, -0.016, 1.004, 192.0, 0.0, 0.0, 0.0, 0.0, 0.0, 0.0, 0.0, 0.0, 0.0, 1.689599329123144E9, 0.0, 2023-07-17 15:08:49.123
3.0, -225.43969457622703, 187500.0, 187500.0, 187500.0, 187500.0, 187500.0, 187500.0, 187500.0, 0.034, -0.016, 1.004, 192.0, 0.0, 0.0, 0.0, 0.0, 0.0, 0.0, 0.0, 0.0, 0.0, 1.6895993291231868E9, 0.0, 2023-07-17 15:08:49.123
4.0, -215.8507962049003, 187500.0, 187500.0, 187500.0, 187500.0, 187500.0, 187500.0, 187500.0, 0.034, -0.016, 1.004, 192.0, 0.0, 0.0, 0.0, 0.0, 0.0, 0.0, 0.0, 0.0, 0.0, 1.6895993291233847E9, 0.0, 2023-07-17 15:08:49.123
5.0, -230.55824405649236, 187500.0, 187500.0, 187500.0, 187500.0, 187500.0, 187500.0, 187500.0, 0.034, -0.016, 1.004, 192.0, 0.0, 0.0, 0.0, 0.0, 0.0, 0.0, 0.0, 0.0, 0.0, 1.6895993291234355E9, 0.0, 2023-07-17 15:08:49.123
6.0, -248.19377043172963, 187500.0, 187500.0, 187500.0, 187500.0, 187500.0, 187500.0, 187500.0, 0.034, -0.016, 1.004, 192.0, 0.0, 0.0, 0.0, 0.0, 0.0, 0.0, 0.0, 0.0, 0.0, 1.6895993291234865E9, 0.0, 2023-07-17 15:08:49.123
7.0, -244.84100876343356, 187500.0, 187500.0, 187500.0, 187500.0, 187500.0, 187500.0, 187500.0, 0.034, -0.016, 1.004, 192.0, 0.0, 0.0, 0.0, 0.0, 0.0, 0.0, 0.0, 0.0, 0.0, 1.6895993291235354E9, 0.0, 2023-07-17 15:08:49.123
8.0, -224.54562479801476, 187500.0, 187500.0, 187500.0, 187500.0, 187500.0, 187500.0, 187500.0, 0.034, -0.016, 1.004, 192.0, 0.0, 0.0, 0.0, 0.0, 0.0, 0.0, 0.0, 0.0, 0.0, 1.6895993291235833E9, 0.0, 2023-07-17 15:08:49.123
9.0, -215.82844446044498, 187500.0, 187500.0, 187500.0, 187500.0, 187500.0, 187500.0, 187500.0, 0.034, -0.016, 1.004, 192.0, 0.0, 0.0, 0.0, 0.0, 0.0, 0.0, 0.0, 0.0, 0.0, 1.6895993291236324E9, 0.0, 2023-07-17 15:08:49.123
10.0, -230.31237486748398, 187500.0, 187500.0, 187500.0, 187500.0, 187500.0, 187500.0, 187500.0, 0.028, -0.018000000000000002, 1.008, 192.0, 0.0, 224.0, 255.0, 112.0, 31.0, 128.0, 0.0, 0.0, 0.0, 1.689599329123677E9, 0.0, 2023-07-17 15:08:49.123
11.0, -248.21612217618494, 187500.0, 187500.0, 187500.0, 187500.0, 187500.0, 187500.0, 187500.0, 0.028, -0.018000000000000002, 1.008, 192.0, 0.0, 0.0, 0.0, 0.0, 0.0, 0.0, 0.0, 0.0, 0.0, 1.689599329123726E9, 0.0, 2023-07-17 15:08:49.123
12.0, -246.62914831985813, 187500.0, 187500.0, 187500.0, 187500.0, 187500.0, 187500.0, 187500.0, 0.028, -0.018000000000000002, 1.008, 192.0, 0.0, 0.0, 0.0, 0.0, 0.0, 0.0, 0.0, 0.0, 0.0, 1.6895993291237717E9, 0.0, 2023-07-17 15:08:49.123
13.0, -225.9314329542438, 187500.0, 187500.0, 187500.0, 187500.0, 187500.0, 187500.0, 187500.0, 0.028, -0.018000000000000002, 1.008, 192.0, 0.0, 0.0, 0.0, 0.0, 0.0, 0.0, 0.0, 0.0, 0.0, 1.689599329123818E9, 0.0, 2023-07-17 15:08:49.123
14.0, -216.18607237172992, 187500.0, 187500.0, 187500.0, 187500.0, 187500.0, 187500.0, 187500.0, 0.028, -0.018000000000000002, 1.008, 192.0, 0.0, 0.0, 0.0, 0.0, 0.0, 0.0, 0.0, 0.0, 0.0, 1.6895993291238635E9, 0.0, 2023-07-17 15:08:49.123
15.0, -230.42413358976052, 187500.0, 187500.0, 187500.0, 187500.0, 187500.0, 187500.0, 187500.0, 0.028, -0.018000000000000002, 1.008, 192.0, 0.0, 0.0, 0.0, 0.0, 0.0, 0.0, 0.0, 0.0, 0.0, 1.6895993291239102E9, 0.0, 2023-07-17 15:08:49.123
16.0, -248.730212298657, 187500.0, 187500.0, 187500.0, 187500.0, 187500.0, 187500.0, 187500.0, 0.028, -0.018000000000000002, 1.008, 192.0, 0.0, 0.0, 0.0, 0.0, 0.0, 0.0, 0.0, 0.0, 0.0, 1.6895993291239574E9, 0.0, 2023-07-17 15:08:49.123
17.0, -246.24916866411792, 187500.0, 187500.0, 187500.0, 187500.0, 187500.0, 187500.0, 187500.0, 0.028, -0.018000000000000002, 1.008, 192.0, 0.0, 0.0, 0.0, 0.0, 0.0, 0.0, 0.0, 0.0, 0.0, 1.6895993291240056E9, 0.0, 2023-07-17 15:08:49.124
18.0, -225.3502875984058, 187500.0, 187500.0, 187500.0, 187500.0, 187500.0, 187500.0, 187500.0, 0.028, -0.018000000000000002, 1.008, 192.0, 0.0, 0.0, 0.0, 0.0, 0.0, 0.0, 0.0, 0.0, 0.0, 1.6895993291240559E9, 0.0, 2023-07-17 15:08:49.124
19.0, -216.99073517212096, 187500.0, 187500.0, 187500.0, 187500.0, 187500.0, 187500.0, 187500.0, 0.028, -0.018000000000000002, 1.008, 192.0, 0.0, 0.0, 0.0, 0.0, 0.0, 0.0, 0.0, 0.0, 0.0, 1.689599329124185E9, 0.0, 2023-07-17 15:08:49.124
20.0, -230.75940975659012, 187500.0, 187500.0, 187500.0, 187500.0, 187500.0, 187500.0, 187500.0, 0.028, -0.016, 1.006, 192.0, 0.0, 224.0, 255.0, 128.0, 31.0, 112.0, 0.0, 0.0, 0.0, 1.6895993291242352E9, 0.0, 2023-07-17 15:08:49.124
21.0, -248.68550880974638, 187500.0, 187500.0, 187500.0, 187500.0, 187500.0, 187500.0, 187500.0, 0.028, -0.016, 1.006, 192.0, 0.0, 0.0, 0.0, 0.0, 0.0, 0.0, 0.0, 0.0, 0.0, 1.689599329124287E9, 0.0, 2023-07-17 15:08:49.124
22.0, -246.2268169196626, 187500.0, 187500.0, 187500.0, 187500.0, 187500.0, 187500.0, 187500.0, 0.028, -0.016, 1.006, 192.0, 0.0, 0.0, 0.0, 0.0, 0.0, 0.0, 0.0, 0.0, 0.0, 1.68959932912433E9, 0.0, 2023-07-17 15:08:49.124
23.0, -225.6855637652354, 187500.0, 187500.0, 187500.0, 187500.0, 187500.0, 187500.0, 187500.0, 0.028, -0.016, 1.006, 192.0, 0.0, 0.0, 0.0, 0.0, 0.0, 0.0, 0.0, 0.0, 0.0, 1.6895993291243768E9, 0.0, 2023-07-17 15:08:49.124
24.0, -216.0743136494534, 187500.0, 187500.0, 187500.0, 187500.0, 187500.0, 187500.0, 187500.0, 0.028, -0.016, 1.006, 192.0, 0.0, 0.0, 0.0, 0.0, 0.0, 0.0, 0.0, 0.0, 0.0, 1.6895993291244226E9, 0.0, 2023-07-17 15:08:49.124
25.0, -230.93822371223257, 187500.0, 187500.0, 187500.0, 187500.0, 187500.0, 187500.0, 187500.0, 0.028, -0.016, 1.006, 192.0, 0.0, 0.0, 0.0, 0.0, 0.0, 0.0, 0.0, 0.0, 0.0, 1.6895993291244948E9, 0.0, 2023-07-17 15:08:49.124
26.0, -248.26082566509555, 187500.0, 187500.0, 187500.0, 187500.0, 187500.0, 187500.0, 187500.0, 0.028, -0.016, 1.006, 192.0, 0.0, 0.0, 0.0, 0.0, 0.0, 0.0, 0.0, 0.0, 0.0, 1.6895993291245492E9, 0.0, 2023-07-17 15:08:49.124
27.0, -245.44450586372685, 187500.0, 187500.0, 187500.0, 187500.0, 187500.0, 187500.0, 187500.0, 0.028, -0.016, 1.006, 192.0, 0.0, 0.0, 0.0, 0.0, 0.0, 0.0, 0.0, 0.0, 0.0, 1.6895993291246085E9, 0.0, 2023-07-17 15:08:49.124
28.0, -224.94795619821028, 187500.0, 187500.0, 187500.0, 187500.0, 187500.0, 187500.0, 187500.0, 0.028, -0.016, 1.006, 192.0, 0.0, 0.0, 0.0, 0.0, 0.0, 0.0, 0.0, 0.0, 0.0, 1.6895993291246672E9, 0.0, 2023-07-17 15:08:49.124
29.0, -215.94020318272152, 187500.0, 187500.0, 187500.0, 187500.0, 187500.0, 187500.0, 187500.0, 0.028, -0.016, 1.006, 192.0, 0.0, 0.0, 0.0, 0.0, 0.0, 0.0, 0.0, 0.0, 0.0, 1.6895993291247342E9, 0.0, 2023-07-17 15:08:49.124
30.0, -229.8206364894672, 187500.0, 187500.0, 187500.0, 187500.0, 187500.0, 187500.0, 187500.0, 0.028, -0.024, 1.008, 192.0, 0.0, 224.0, 255.0, 64.0, 31.0, 128.0, 0.0, 0.0, 0.0, 1.6895993291247952E9, 0.0, 2023-07-17 15:08:49.124
31.0, -247.97025298717656, 187500.0, 187500.0, 187500.0, 187500.0, 187500.0, 187500.0, 187500.0, 0.028, -0.024, 1.008, 192.0, 0.0, 0.0, 0.0, 0.0, 0.0, 0.0, 0.0, 0.0, 0.0, 1.6895993291248548E9, 0.0, 2023-07-17 15:08:49.124
32.0, -246.33857564193914, 187500.0, 187500.0, 187500.0, 187500.0, 187500.0, 187500.0, 187500.0, 0.028, -0.024, 1.008, 192.0, 0.0, 0.0, 0.0, 0.0, 0.0, 0.0, 0.0, 0.0, 0.0, 1.689599329124914E9, 0.0, 2023-07-17 15:08:49.124
33.0, -225.61850853186948, 187500.0, 187500.0, 187500.0, 187500.0, 187500.0, 187500.0, 187500.0, 0.028, -0.024, 1.008, 192.0, 0.0, 0.0, 0.0, 0.0, 0.0, 0.0, 0.0, 0.0, 0.0, 1.689599329124961E9, 0.0, 2023-07-17 15:08:49.124
34.0, -216.4319415607383, 187500.0, 187500.0, 187500.0, 187500.0, 187500.0, 187500.0, 187500.0, 0.028, -0.024, 1.008, 192.0, 0.0, 0.0, 0.0, 0.0, 0.0, 0.0, 0.0, 0.0, 0.0, 1.6895993291250136E9, 0.0, 2023-07-17 15:08:49.125
35.0, -230.49118882312644, 187500.0, 187500.0, 187500.0, 187500.0, 187500.0, 187500.0, 187500.0, 0.028, -0.024, 1.008, 192.0, 0.0, 0.0, 0.0, 0.0, 0.0, 0.0, 0.0, 0.0, 0.0, 1.6895993291254892E9, 0.0, 2023-07-17 15:08:49.125
36.0, -248.4172878762827, 187500.0, 187500.0, 187500.0, 187500.0, 187500.0, 187500.0, 187500.0, 0.028, -0.024, 1.008, 192.0, 0.0, 0.0, 0.0, 0.0, 0.0, 0.0, 0.0, 0.0, 0.0, 1.6895993291255662E9, 0.0, 2023-07-17 15:08:49.125
37.0, -246.02565121956485, 187500.0, 187500.0, 187500.0, 187500.0, 187500.0, 187500.0, 187500.0, 0.028, -0.024, 1.008, 192.0, 0.0, 0.0, 0.0, 0.0, 0.0, 0.0, 0.0, 0.0, 0.0, 1.6895993291256292E9, 0.0, 2023-07-17 15:08:49.125
38.0, -225.3949910873164, 187500.0, 187500.0, 187500.0, 187500.0, 187500.0, 187500.0, 187500.0, 0.028, -0.024, 1.008, 192.0, 0.0, 0.0, 0.0, 0.0, 0.0, 0.0, 0.0, 0.0, 0.0, 1.689599329125684E9, 0.0, 2023-07-17 15:08:49.125
39.0, -215.5602235269813, 187500.0, 187500.0, 187500.0, 187500.0, 187500.0, 187500.0, 187500.0, 0.028, -0.024, 1.008, 192.0, 0.0, 0.0, 0.0, 0.0, 0.0, 0.0, 0.0, 0.0, 0.0, 1.6895993291257484E9, 0.0, 2023-07-17 15:08:49.125
40.0, -229.9994504451097, 187500.0, 187500.0, 187500.0, 187500.0, 187500.0, 187500.0, 187500.0, 0.026000000000000002, -0.026000000000000002, 1.006, 192.0, 0.0, 208.0, 255.0, 48.0, 31.0, 112.0, 0.0, 0.0, 0.0, 1.68959932912581E9, 0.0, 2023-07-17 15:08:49.125
41.0, -248.68550880974638, 187500.0, 187500.0, 187500.0, 187500.0, 187500.0, 187500.0, 187500.0, 0.026000000000000002, -0.026000000000000002, 1.006, 192.0, 0.0, 0.0, 0.0, 0.0, 0.0, 0.0, 0.0, 0.0, 0.0, 1.6895993291258636E9, 0.0, 2023-07-17 15:08:49.125
42.0, -246.13740994184138, 187500.0, 187500.0, 187500.0, 187500.0, 187500.0, 187500.0, 187500.0, 0.026000000000000002, -0.026000000000000002, 1.006, 192.0, 0.0, 0.0, 0.0, 0.0, 0.0, 0.0, 0.0, 0.0, 0.0, 1.6895993291259189E9, 0.0, 2023-07-17 15:08:49.125
43.0, -224.61268003138068, 187500.0, 187500.0, 187500.0, 187500.0, 187500.0, 187500.0, 187500.0, 0.026000000000000002, -0.026000000000000002, 1.006, 192.0, 0.0, 0.0, 0.0, 0.0, 0.0, 0.0, 0.0, 0.0, 0.0, 1.689599329125967E9, 0.0, 2023-07-17 15:08:49.125
44.0, -215.71668573816845, 187500.0, 187500.0, 187500.0, 187500.0, 187500.0, 187500.0, 187500.0, 0.026000000000000002, -0.026000000000000002, 1.006, 192.0, 0.0, 0.0, 0.0, 0.0, 0.0, 0.0, 0.0, 0.0, 0.0, 1.6895993291260188E9, 0.0, 2023-07-17 15:08:49.126
45.0, -230.7147062676795, 187500.0, 187500.0, 187500.0, 187500.0, 187500.0, 187500.0, 187500.0, 0.026000000000000002, -0.026000000000000002, 1.006, 192.0, 0.0, 0.0, 0.0, 0.0, 0.0, 0.0, 0.0, 0.0, 0.0, 1.6895993291260808E9, 0.0, 2023-07-17 15:08:49.126
46.0, -249.15489544330782, 187500.0, 187500.0, 187500.0, 187500.0, 187500.0, 187500.0, 187500.0, 0.026000000000000002, -0.026000000000000002, 1.006, 192.0, 0.0, 0.0, 0.0, 0.0, 0.0, 0.0, 0.0, 0.0, 0.0, 1.689599329126126E9, 0.0, 2023-07-17 15:08:49.126
47.0, -245.35509888590562, 187500.0, 187500.0, 187500.0, 187500.0, 187500.0, 187500.0, 187500.0, 0.026000000000000002, -0.026000000000000002, 1.006, 192.0, 0.0, 0.0, 0.0, 0.0, 0.0, 0.0, 0.0, 0.0, 0.0, 1.6895993291261818E9, 0.0, 2023-07-17 15:08:49.126
48.0, -224.3221073534617, 187500.0, 187500.0, 187500.0, 187500.0, 187500.0, 187500.0, 187500.0, 0.026000000000000002, -0.026000000000000002, 1.006, 192.0, 0.0, 0.0, 0.0, 0.0, 0.0, 0.0, 0.0, 0.0, 0.0, 1.68959932912631E9, 0.0, 2023-07-17 15:08:49.126
49.0, -215.5155200380707, 187500.0, 187500.0, 187500.0, 187500.0, 187500.0, 187500.0, 187500.0, 0.026000000000000002, -0.026000000000000002, 1.006, 192.0, 0.0, 0.0, 0.0, 0.0, 0.0, 0.0, 0.0, 0.0, 0.0, 1.6895993291263635E9, 0.0, 2023-07-17 15:08:49.126
50.0, -230.49118882312644, 187500.0, 187500.0, 187500.0, 187500.0, 187500.0, 187500.0, 187500.0, 0.034, -0.022, 1.002, 192.0, 1.0, 16.0, 255.0, 80.0, 31.0, 80.0, 0.0, 0.0, 0.0, 1.6895993291265187E9, 0.0, 2023-07-17 15:08:49.126
51.0, -248.84197102093353, 187500.0, 187500.0, 187500.0, 187500.0, 187500.0, 187500.0, 187500.0, 0.034, -0.022, 1.002, 192.0, 0.0, 0.0, 0.0, 0.0, 0.0, 0.0, 0.0, 0.0, 0.0, 1.6895993291265728E9, 0.0, 2023-07-17 15:08:49.126
52.0, -245.8468372639224, 187500.0, 187500.0, 187500.0, 187500.0, 187500.0, 187500.0, 187500.0, 0.034, -0.022, 1.002, 192.0, 0.0, 0.0, 0.0, 0.0, 0.0, 0.0, 0.0, 0.0, 0.0, 1.689599329126623E9, 0.0, 2023-07-17 15:08:49.126
53.0, -225.6855637652354, 187500.0, 187500.0, 187500.0, 187500.0, 187500.0, 187500.0, 187500.0, 0.034, -0.022, 1.002, 192.0, 0.0, 0.0, 0.0, 0.0, 0.0, 0.0, 0.0, 0.0, 0.0, 1.6895993291266797E9, 0.0, 2023-07-17 15:08:49.126
54.0, -216.38723807182768, 187500.0, 187500.0, 187500.0, 187500.0, 187500.0, 187500.0, 187500.0, 0.034, -0.022, 1.002, 192.0, 0.0, 0.0, 0.0, 0.0, 0.0, 0.0, 0.0, 0.0, 0.0, 1.6895993291267292E9, 0.0, 2023-07-17 15:08:49.126
55.0, -230.7147062676795, 187500.0, 187500.0, 187500.0, 187500.0, 187500.0, 187500.0, 187500.0, 0.034, -0.022, 1.002, 192.0, 0.0, 0.0, 0.0, 0.0, 0.0, 0.0, 0.0, 0.0, 0.0, 1.6895993291267867E9, 0.0, 2023-07-17 15:08:49.126
56.0, -248.3725843873721, 187500.0, 187500.0, 187500.0, 187500.0, 187500.0, 187500.0, 187500.0, 0.034, -0.022, 1.002, 192.0, 0.0, 0.0, 0.0, 0.0, 0.0, 0.0, 0.0, 0.0, 0.0, 1.6895993291268413E9, 0.0, 2023-07-17 15:08:49.126
57.0, -246.24916866411792, 187500.0, 187500.0, 187500.0, 187500.0, 187500.0, 187500.0, 187500.0, 0.034, -0.022, 1.002, 192.0, 0.0, 0.0, 0.0, 0.0, 0.0, 0.0, 0.0, 0.0, 0.0, 1.6895993291268995E9, 0.0, 2023-07-17 15:08:49.126
58.0, -225.12677015385273, 187500.0, 187500.0, 187500.0, 187500.0, 187500.0, 187500.0, 187500.0, 0.034, -0.022, 1.002, 192.0, 0.0, 0.0, 0.0, 0.0, 0.0, 0.0, 0.0, 0.0, 0.0, 1.6895993291269596E9, 0.0, 2023-07-17 15:08:49.126
59.0, -215.8731479493556, 187500.0, 187500.0, 187500.0, 187500.0, 187500.0, 187500.0, 187500.0, 0.034, -0.022, 1.002, 192.0, 0.0, 0.0, 0.0, 0.0, 0.0, 0.0, 0.0, 0.0, 0.0, 1.68959932912702E9, 0.0, 2023-07-17 15:08:49.127
60.0, -230.44648533421582, 187500.0, 187500.0, 187500.0, 187500.0, 187500.0, 187500.0, 187500.0, 0.034, -0.018000000000000002, 1.0, 192.0, 1.0, 16.0, 255.0, 112.0, 31.0, 64.0, 0.0, 0.0, 0.0, 1.6895993291270776E9, 0.0, 2023-07-17 15:08:49.127
61.0, -248.64080532083577, 187500.0, 187500.0, 187500.0, 187500.0, 187500.0, 187500.0, 187500.0, 0.034, -0.018000000000000002, 1.0, 192.0, 0.0, 0.0, 0.0, 0.0, 0.0, 0.0, 0.0, 0.0, 0.0, 1.6895993291271405E9, 0.0, 2023-07-17 15:08:49.127
62.0, -246.80796227550059, 187500.0, 187500.0, 187500.0, 187500.0, 187500.0, 187500.0, 187500.0, 0.034, -0.018000000000000002, 1.0, 192.0, 0.0, 0.0, 0.0, 0.0, 0.0, 0.0, 0.0, 0.0, 0.0, 1.6895993291272004E9, 0.0, 2023-07-17 15:08:49.127
63.0, -226.2220056321628, 187500.0, 187500.0, 187500.0, 187500.0, 187500.0, 187500.0, 187500.0, 0.034, -0.018000000000000002, 1.0, 192.0, 0.0, 0.0, 0.0, 0.0, 0.0, 0.0, 0.0, 0.0, 0.0, 1.6895993291272604E9, 0.0, 2023-07-17 15:08:49.127
64.0, -216.61075551638075, 187500.0, 187500.0, 187500.0, 187500.0, 187500.0, 187500.0, 187500.0, 0.034, -0.018000000000000002, 1.0, 192.0, 0.0, 0.0, 0.0, 0.0, 0.0, 0.0, 0.0, 0.0, 0.0, 1.6895993291273196E9, 0.0, 2023-07-17 15:08:49.127
65.0, -230.42413358976052, 187500.0, 187500.0, 187500.0, 187500.0, 187500.0, 187500.0, 187500.0, 0.034, -0.018000000000000002, 1.0, 192.0, 0.0, 0.0, 0.0, 0.0, 0.0, 0.0, 0.0, 0.0, 0.0, 1.6895993291274629E9, 0.0, 2023-07-17 15:08:49.127
66.0, -249.28900591003966, 187500.0, 187500.0, 187500.0, 187500.0, 187500.0, 187500.0, 187500.0, 0.034, -0.018000000000000002, 1.0, 192.0, 0.0, 0.0, 0.0, 0.0, 0.0, 0.0, 0.0, 0.0, 0.0, 1.6895993291275208E9, 0.0, 2023-07-17 15:08:49.127
67.0, -246.09270645293077, 187500.0, 187500.0, 187500.0, 187500.0, 187500.0, 187500.0, 187500.0, 0.034, -0.018000000000000002, 1.0, 192.0, 0.0, 0.0, 0.0, 0.0, 0.0, 0.0, 0.0, 0.0, 0.0, 1.6895993291275718E9, 0.0, 2023-07-17 15:08:49.127
68.0, -225.88672946533316, 187500.0, 187500.0, 187500.0, 187500.0, 187500.0, 187500.0, 187500.0, 0.034, -0.018000000000000002, 1.0, 192.0, 0.0, 0.0, 0.0, 0.0, 0.0, 0.0, 0.0, 0.0, 0.0, 1.689599329127622E9, 0.0, 2023-07-17 15:08:49.127
69.0, -215.64963050480253, 187500.0, 187500.0, 187500.0, 187500.0, 187500.0, 187500.0, 187500.0, 0.034, -0.018000000000000002, 1.0, 192.0, 0.0, 0.0, 0.0, 0.0, 0.0, 0.0, 0.0, 0.0, 0.0, 1.6895993291276715E9, 0.0, 2023-07-17 15:08:49.127
70.0, -230.15591265629683, 187500.0, 187500.0, 187500.0, 187500.0, 187500.0, 187500.0, 187500.0, 0.036000000000000004, -0.016, 1.004, 192.0, 1.0, 32.0, 255.0, 128.0, 31.0, 96.0, 0.0, 0.0, 0.0, 1.6895993291277208E9, 0.0, 2023-07-17 15:08:49.127
71.0, -247.90319775381064, 187500.0, 187500.0, 187500.0, 187500.0, 187500.0, 187500.0, 187500.0, 0.036000000000000004, -0.016, 1.004, 192.0, 0.0, 0.0, 0.0, 0.0, 0.0, 0.0, 0.0, 0.0, 0.0, 1.6895993291277733E9, 0.0, 2023-07-17 15:08:49.127
72.0, -245.310395396995, 187500.0, 187500.0, 187500.0, 187500.0, 187500.0, 187500.0, 187500.0, 0.036000000000000004, -0.016, 1.004, 192.0, 0.0, 0.0, 0.0, 0.0, 0.0, 0.0, 0.0, 0.0, 0.0, 1.689599329127823E9, 0.0, 2023-07-17 15:08:49.127
73.0, -225.08206666494212, 187500.0, 187500.0, 187500.0, 187500.0, 187500.0, 187500.0, 187500.0, 0.036000000000000004, -0.016, 1.004, 192.0, 0.0, 0.0, 0.0, 0.0, 0.0, 0.0, 0.0, 0.0, 0.0, 1.689599329127873E9, 0.0, 2023-07-17 15:08:49.127
74.0, -215.80609271598968, 187500.0, 187500.0, 187500.0, 187500.0, 187500.0, 187500.0, 187500.0, 0.036000000000000004, -0.016, 1.004, 192.0, 0.0, 0.0, 0.0, 0.0, 0.0, 0.0, 0.0, 0.0, 0.0, 1.6895993291279223E9, 0.0, 2023-07-17 15:08:49.127
75.0, -230.0665056784756, 187500.0, 187500.0, 187500.0, 187500.0, 187500.0, 187500.0, 187500.0, 0.036000000000000004, -0.016, 1.004, 192.0, 0.0, 0.0, 0.0, 0.0, 0.0, 0.0, 0.0, 0.0, 0.0, 1.6895993291279716E9, 0.0, 2023-07-17 15:08:49.127
76.0, -248.55139834301454, 187500.0, 187500.0, 187500.0, 187500.0, 187500.0, 187500.0, 187500.0, 0.036000000000000004, -0.016, 1.004, 192.0, 0.0, 0.0, 0.0, 0.0, 0.0, 0.0, 0.0, 0.0, 0.0, 1.6895993291280208E9, 0.0, 2023-07-17 15:08:49.128
77.0, -246.2044651752073, 187500.0, 187500.0, 187500.0, 187500.0, 187500.0, 187500.0, 187500.0, 0.036000000000000004, -0.016, 1.004, 192.0, 0.0, 0.0, 0.0, 0.0, 0.0, 0.0, 0.0, 0.0, 0.0, 1.6895993291280704E9, 0.0, 2023-07-17 15:08:49.128
78.0, -225.6855637652354, 187500.0, 187500.0, 187500.0, 187500.0, 187500.0, 187500.0, 187500.0, 0.036000000000000004, -0.016, 1.004, 192.0, 0.0, 0.0, 0.0, 0.0, 0.0, 0.0, 0.0, 0.0, 0.0, 1.68959932912812E9, 0.0, 2023-07-17 15:08:49.128
79.0, -216.1413688828193, 187500.0, 187500.0, 187500.0, 187500.0, 187500.0, 187500.0, 187500.0, 0.036000000000000004, -0.016, 1.004, 192.0, 0.0, 0.0, 0.0, 0.0, 0.0, 0.0, 0.0, 0.0, 0.0, 1.6895993291281686E9, 0.0, 2023-07-17 15:08:49.128
80.0, -230.42413358976052, 187500.0, 187500.0, 187500.0, 187500.0, 187500.0, 187500.0, 187500.0, 0.034, -0.014, 1.006, 192.0, 1.0, 16.0, 255.0, 144.0, 31.0, 112.0, 0.0, 0.0, 0.0, 1.6895993291282172E9, 0.0, 2023-07-17 15:08:49.128
81.0, -248.0820117094531, 187500.0, 187500.0, 187500.0, 187500.0, 187500.0, 187500.0, 187500.0, 0.034, -0.014, 1.006, 192.0, 0.0, 0.0, 0.0, 0.0, 0.0, 0.0, 0.0, 0.0, 0.0, 1.6895993291283455E9, 0.0, 2023-07-17 15:08:49.128
82.0, -245.13158144135255, 187500.0, 187500.0, 187500.0, 187500.0, 187500.0, 187500.0, 187500.0, 0.034, -0.014, 1.006, 192.0, 0.0, 0.0, 0.0, 0.0, 0.0, 0.0, 0.0, 0.0, 0.0, 1.689599329128404E9, 0.0, 2023-07-17 15:08:49.128
83.0, -226.06554342097564, 187500.0, 187500.0, 187500.0, 187500.0, 187500.0, 187500.0, 187500.0, 0.034, -0.014, 1.006, 192.0, 0.0, 0.0, 0.0, 0.0, 0.0, 0.0, 0.0, 0.0, 0.0, 1.6895993291284654E9, 0.0, 2023-07-17 15:08:49.128
84.0, -215.5155200380707, 187500.0, 187500.0, 187500.0, 187500.0, 187500.0, 187500.0, 187500.0, 0.034, -0.014, 1.006, 192.0, 0.0, 0.0, 0.0, 0.0, 0.0, 0.0, 0.0, 0.0, 0.0, 1.6895993291285253E9, 0.0, 2023-07-17 15:08:49.128
85.0, -230.0441539340203, 187500.0, 187500.0, 187500.0, 187500.0, 187500.0, 187500.0, 187500.0, 0.034, -0.014, 1.006, 192.0, 0.0, 0.0, 0.0, 0.0, 0.0, 0.0, 0.0, 0.0, 0.0, 1.6895993291285837E9, 0.0, 2023-07-17 15:08:49.128
86.0, -248.97608148766537, 187500.0, 187500.0, 187500.0, 187500.0, 187500.0, 187500.0, 187500.0, 0.034, -0.014, 1.006, 192.0, 0.0, 0.0, 0.0, 0.0, 0.0, 0.0, 0.0, 0.0, 0.0, 1.6895993291286435E9, 0.0, 2023-07-17 15:08:49.128
87.0, -246.07035470847546, 187500.0, 187500.0, 187500.0, 187500.0, 187500.0, 187500.0, 187500.0, 0.034, -0.014, 1.006, 192.0, 0.0, 0.0, 0.0, 0.0, 0.0, 0.0, 0.0, 0.0, 0.0, 1.689599329128703E9, 0.0, 2023-07-17 15:08:49.128
88.0, -225.9537846986991, 187500.0, 187500.0, 187500.0, 187500.0, 187500.0, 187500.0, 187500.0, 0.034, -0.014, 1.006, 192.0, 0.0, 0.0, 0.0, 0.0, 0.0, 0.0, 0.0, 0.0, 0.0, 1.6895993291287603E9, 0.0, 2023-07-17 15:08:49.128
89.0, -215.9178514382662, 187500.0, 187500.0, 187500.0, 187500.0, 187500.0, 187500.0, 187500.0, 0.034, -0.014, 1.006, 192.0, 0.0, 0.0, 0.0, 0.0, 0.0, 0.0, 0.0, 0.0, 0.0, 1.6895993291288147E9, 0.0, 2023-07-17 15:08:49.128
90.0, -229.26184287808454, 187500.0, 187500.0, 187500.0, 187500.0, 187500.0, 187500.0, 187500.0, 0.032, -0.016, 1.004, 192.0, 1.0, 0.0, 255.0, 128.0, 31.0, 96.0, 0.0, 0.0, 0.0, 1.6895993291288645E9, 0.0, 2023-07-17 15:08:49.128
91.0, -248.3949361318274, 187500.0, 187500.0, 187500.0, 187500.0, 187500.0, 187500.0, 187500.0, 0.032, -0.016, 1.004, 192.0, 0.0, 0.0, 0.0, 0.0, 0.0, 0.0, 0.0, 0.0, 0.0, 1.689599329128925E9, 0.0, 2023-07-17 15:08:49.128
92.0, -246.02565121956485, 187500.0, 187500.0, 187500.0, 187500.0, 187500.0, 187500.0, 187500.0, 0.032, -0.016, 1.004, 192.0, 0.0, 0.0, 0.0, 0.0, 0.0, 0.0, 0.0, 0.0, 0.0, 1.6895993291289868E9, 0.0, 2023-07-17 15:08:49.128
93.0, -225.77497074305663, 187500.0, 187500.0, 187500.0, 187500.0, 187500.0, 187500.0, 187500.0, 0.032, -0.016, 1.004, 192.0, 0.0, 0.0, 0.0, 0.0, 0.0, 0.0, 0.0, 0.0, 0.0, 1.6895993291290462E9, 0.0, 2023-07-17 15:08:49.129
94.0, -215.96255492717685, 187500.0, 187500.0, 187500.0, 187500.0, 187500.0, 187500.0, 187500.0, 0.032, -0.016, 1.004, 192.0, 0.0, 0.0, 0.0, 0.0, 0.0, 0.0, 0.0, 0.0, 0.0, 1.6895993291291044E9, 0.0, 2023-07-17 15:08:49.129
95.0, -229.19478764471862, 187500.0, 187500.0, 187500.0, 187500.0, 187500.0, 187500.0, 187500.0, 0.032, -0.016, 1.004, 192.0, 0.0, 0.0, 0.0, 0.0, 0.0, 0.0, 0.0, 0.0, 0.0, 1.6895993291291647E9, 0.0, 2023-07-17 15:08:49.129
96.0, -247.76908728707878, 187500.0, 187500.0, 187500.0, 187500.0, 187500.0, 187500.0, 187500.0, 0.032, -0.016, 1.004, 192.0, 0.0, 0.0, 0.0, 0.0, 0.0, 0.0, 0.0, 0.0, 0.0, 1.6895993291292882E9, 0.0, 2023-07-17 15:08:49.129
97.0, -246.36092738639445, 187500.0, 187500.0, 187500.0, 187500.0, 187500.0, 187500.0, 187500.0, 0.032, -0.016, 1.004, 192.0, 0.0, 0.0, 0.0, 0.0, 0.0, 0.0, 0.0, 0.0, 0.0, 1.6895993291293535E9, 0.0, 2023-07-17 15:08:49.129
98.0, -225.81967423196724, 187500.0, 187500.0, 187500.0, 187500.0, 187500.0, 187500.0, 187500.0, 0.032, -0.016, 1.004, 192.0, 0.0, 0.0, 0.0, 0.0, 0.0, 0.0, 0.0, 0.0, 0.0, 1.689599329129413E9, 0.0, 2023-07-17 15:08:49.129
99.0, -216.49899679410422, 187500.0, 187500.0, 187500.0, 187500.0, 187500.0, 187500.0, 187500.0, 0.032, -0.016, 1.004, 192.0, 0.0, 0.0, 0.0, 0.0, 0.0, 0.0, 0.0, 0.0, 0.0, 1.6895993291294768E9, 0.0, 2023-07-17 15:08:49.129
100.0, -230.17826440075214, 187500.0, 187500.0, 187500.0, 187500.0, 187500.0, 187500.0, 187500.0, 0.032, -0.016, 1.012, 192.0, 1.0, 0.0, 255.0, 128.0, 31.0, 160.0, 0.0, 0.0, 0.0, 1.6895993291295395E9, 0.0, 2023-07-17 15:08:49.129
101.0, -248.3725843873721, 187500.0, 187500.0, 187500.0, 187500.0, 187500.0, 187500.0, 187500.0, 0.032, -0.016, 1.012, 192.0, 0.0, 0.0, 0.0, 0.0, 0.0, 0.0, 0.0, 0.0, 0.0, 1.6895993291296039E9, 0.0, 2023-07-17 15:08:49.129
102.0, -246.31622389748384, 187500.0, 187500.0, 187500.0, 187500.0, 187500.0, 187500.0, 187500.0, 0.032, -0.016, 1.012, 192.0, 0.0, 0.0, 0.0, 0.0, 0.0, 0.0, 0.0, 0.0, 0.0, 1.6895993291296651E9, 0.0, 2023-07-17 15:08:49.129
103.0, -225.3502875984058, 187500.0, 187500.0, 187500.0, 187500.0, 187500.0, 187500.0, 187500.0, 0.032, -0.016, 1.012, 192.0, 0.0, 0.0, 0.0, 0.0, 0.0, 0.0, 0.0, 0.0, 0.0, 1.6895993291297255E9, 0.0, 2023-07-17 15:08:49.129
104.0, -215.537871782526, 187500.0, 187500.0, 187500.0, 187500.0, 187500.0, 187500.0, 187500.0, 0.032, -0.016, 1.012, 192.0, 0.0, 0.0, 0.0, 0.0, 0.0, 0.0, 0.0, 0.0, 0.0, 1.6895993291297884E9, 0.0, 2023-07-17 15:08:49.129
105.0, -230.021802189565, 187500.0, 187500.0, 187500.0, 187500.0, 187500.0, 187500.0, 187500.0, 0.032, -0.016, 1.012, 192.0, 0.0, 0.0, 0.0, 0.0, 0.0, 0.0, 0.0, 0.0, 0.0, 1.6895993296021538E9, 0.0, 2023-07-17 15:08:49.602
106.0, -248.64080532083577, 187500.0, 187500.0, 187500.0, 187500.0, 187500.0, 187500.0, 187500.0, 0.032, -0.016, 1.012, 192.0, 0.0, 0.0, 0.0, 0.0, 0.0, 0.0, 0.0, 0.0, 0.0, 1.6895993296022851E9, 0.0, 2023-07-17 15:08:49.602
107.0, -246.91972099777712, 187500.0, 187500.0, 187500.0, 187500.0, 187500.0, 187500.0, 187500.0, 0.032, -0.016, 1.012, 192.0, 0.0, 0.0, 0.0, 0.0, 0.0, 0.0, 0.0, 0.0, 0.0, 1.6895993296023605E9, 0.0, 2023-07-17 15:08:49.602
108.0, -226.15495039879687, 187500.0, 187500.0, 187500.0, 187500.0, 187500.0, 187500.0, 187500.0, 0.032, -0.016, 1.012, 192.0, 0.0, 0.0, 0.0, 0.0, 0.0, 0.0, 0.0, 0.0, 0.0, 1.68959932960242E9, 0.0, 2023-07-17 15:08:49.602
109.0, -216.61075551638075, 187500.0, 187500.0, 187500.0, 187500.0, 187500.0, 187500.0, 187500.0, 0.034, -0.022, 1.016, 192.0, 1.0, 16.0, 255.0, 80.0, 31.0, 192.0, 0.0, 0.0, 0.0, 1.6895993296024668E9, 0.0, 2023-07-17 15:08:49.602
110.0, -230.42413358976052, 187500.0, 187500.0, 187500.0, 187500.0, 187500.0, 187500.0, 187500.0, 0.034, -0.022, 1.016, 192.0, 0.0, 0.0, 0.0, 0.0, 0.0, 0.0, 0.0, 0.0, 0.0, 1.6895993296025343E9, 0.0, 2023-07-17 15:08:49.602
111.0, -248.3725843873721, 187500.0, 187500.0, 187500.0, 187500.0, 187500.0, 187500.0, 187500.0, 0.034, -0.022, 1.016, 192.0, 0.0, 0.0, 0.0, 0.0, 0.0, 0.0, 0.0, 0.0, 0.0, 1.689599329602857E9, 0.0, 2023-07-17 15:08:49.602
112.0, -246.58444483094752, 187500.0, 187500.0, 187500.0, 187500.0, 187500.0, 187500.0, 187500.0, 0.034, -0.022, 1.016, 192.0, 0.0, 0.0, 0.0, 0.0, 0.0, 0.0, 0.0, 0.0, 0.0, 1.6895993296029117E9, 0.0, 2023-07-17 15:08:49.602
113.0, -225.48439806513764, 187500.0, 187500.0, 187500.0, 187500.0, 187500.0, 187500.0, 187500.0, 0.034, -0.022, 1.016, 192.0, 0.0, 0.0, 0.0, 0.0, 0.0, 0.0, 0.0, 0.0, 0.0, 1.689599329602961E9, 0.0, 2023-07-17 15:08:49.602
114.0, -216.25312760509584, 187500.0, 187500.0, 187500.0, 187500.0, 187500.0, 187500.0, 187500.0, 0.034, -0.022, 1.016, 192.0, 0.0, 0.0, 0.0, 0.0, 0.0, 0.0, 0.0, 0.0, 0.0, 1.689599329603016E9, 0.0, 2023-07-17 15:08:49.603
115.0, -229.70887776719067, 187500.0, 187500.0, 187500.0, 187500.0, 187500.0, 187500.0, 187500.0, 0.034, -0.022, 1.016, 192.0, 0.0, 0.0, 0.0, 0.0, 0.0, 0.0, 0.0, 0.0, 0.0, 1.6895993296030693E9, 0.0, 2023-07-17 15:08:49.603
116.0, -248.59610183192515, 187500.0, 187500.0, 187500.0, 187500.0, 187500.0, 187500.0, 187500.0, 0.034, -0.022, 1.016, 192.0, 0.0, 0.0, 0.0, 0.0, 0.0, 0.0, 0.0, 0.0, 0.0, 1.689599329603126E9, 0.0, 2023-07-17 15:08:49.603
117.0, -246.00329947510954, 187500.0, 187500.0, 187500.0, 187500.0, 187500.0, 187500.0, 187500.0, 0.034, -0.022, 1.016, 192.0, 0.0, 0.0, 0.0, 0.0, 0.0, 0.0, 0.0, 0.0, 0.0, 1.6895993296031785E9, 0.0, 2023-07-17 15:08:49.603
118.0, -225.6855637652354, 187500.0, 187500.0, 187500.0, 187500.0, 187500.0, 187500.0, 187500.0, 0.034, -0.022, 1.016, 192.0, 0.0, 0.0, 0.0, 0.0, 0.0, 0.0, 0.0, 0.0, 0.0, 1.689599329603235E9, 0.0, 2023-07-17 15:08:49.603
119.0, -215.537871782526, 187500.0, 187500.0, 187500.0, 187500.0, 187500.0, 187500.0, 187500.0, 0.03, -0.024, 1.016, 192.0, 0.0, 240.0, 255.0, 64.0, 31.0, 192.0, 0.0, 0.0, 0.0, 1.6895993296032925E9, 0.0, 2023-07-17 15:08:49.603
120.0, -228.90421496679963, 187500.0, 187500.0, 187500.0, 187500.0, 187500.0, 187500.0, 187500.0, 0.03, -0.024, 1.016, 192.0, 0.0, 0.0, 0.0, 0.0, 0.0, 0.0, 0.0, 0.0, 0.0, 1.6895993296033597E9, 0.0, 2023-07-17 15:08:49.603
121.0, -248.57375008746985, 187500.0, 187500.0, 187500.0, 187500.0, 187500.0, 187500.0, 187500.0, 0.03, -0.024, 1.016, 192.0, 0.0, 0.0, 0.0, 0.0, 0.0, 0.0, 0.0, 0.0, 0.0, 1.6895993296034212E9, 0.0, 2023-07-17 15:08:49.603
122.0, -246.11505819738608, 187500.0, 187500.0, 187500.0, 187500.0, 187500.0, 187500.0, 187500.0, 0.03, -0.024, 1.016, 192.0, 0.0, 0.0, 0.0, 0.0, 0.0, 0.0, 0.0, 0.0, 0.0, 1.6895993296034827E9, 0.0, 2023-07-17 15:08:49.603
123.0, -225.99848818760972, 187500.0, 187500.0, 187500.0, 187500.0, 187500.0, 187500.0, 187500.0, 0.03, -0.024, 1.016, 192.0, 0.0, 0.0, 0.0, 0.0, 0.0, 0.0, 0.0, 0.0, 0.0, 1.689599329603552E9, 0.0, 2023-07-17 15:08:49.603
124.0, -216.0966653939087, 187500.0, 187500.0, 187500.0, 187500.0, 187500.0, 187500.0, 187500.0, 0.03, -0.024, 1.016, 192.0, 0.0, 0.0, 0.0, 0.0, 0.0, 0.0, 0.0, 0.0, 0.0, 1.6895993296036253E9, 0.0, 2023-07-17 15:08:49.603
125.0, -230.60294754540297, 187500.0, 187500.0, 187500.0, 187500.0, 187500.0, 187500.0, 187500.0, 0.03, -0.024, 1.016, 192.0, 0.0, 0.0, 0.0, 0.0, 0.0, 0.0, 0.0, 0.0, 0.0, 1.6895993296036904E9, 0.0, 2023-07-17 15:08:49.603
126.0, -248.48434310964862, 187500.0, 187500.0, 187500.0, 187500.0, 187500.0, 187500.0, 187500.0, 0.03, -0.024, 1.016, 192.0, 0.0, 0.0, 0.0, 0.0, 0.0, 0.0, 0.0, 0.0, 0.0, 1.689599329603948E9, 0.0, 2023-07-17 15:08:49.603
127.0, -245.600968074914, 187500.0, 187500.0, 187500.0, 187500.0, 187500.0, 187500.0, 187500.0, 0.03, -0.024, 1.016, 192.0, 0.0, 0.0, 0.0, 0.0, 0.0, 0.0, 0.0, 0.0, 0.0, 1.689599329604E9, 0.0, 2023-07-17 15:08:49.604
128.0, -226.40081958780524, 187500.0, 187500.0, 187500.0, 187500.0, 187500.0, 187500.0, 187500.0, 0.03, -0.024, 1.016, 192.0, 0.0, 0.0, 0.0, 0.0, 0.0, 0.0, 0.0, 0.0, 0.0, 1.6895993296040523E9, 0.0, 2023-07-17 15:08:49.604
129.0, -216.4542933051936, 187500.0, 187500.0, 187500.0, 187500.0, 187500.0, 187500.0, 187500.0, 0.04, -0.02, 1.012, 192.0, 1.0, 64.0, 255.0, 96.0, 31.0, 160.0, 0.0, 0.0, 0.0, 1.6895993296041052E9, 0.0, 2023-07-17 15:08:49.604
130.0, -229.37360160036107, 187500.0, 187500.0, 187500.0, 187500.0, 187500.0, 187500.0, 187500.0, 0.04, -0.02, 1.012, 192.0, 0.0, 0.0, 0.0, 0.0, 0.0, 0.0, 0.0, 0.0, 0.0, 1.6895993296041603E9, 0.0, 2023-07-17 15:08:49.604
131.0, -248.730212298657, 187500.0, 187500.0, 187500.0, 187500.0, 187500.0, 187500.0, 187500.0, 0.04, -0.02, 1.012, 192.0, 0.0, 0.0, 0.0, 0.0, 0.0, 0.0, 0.0, 0.0, 0.0, 1.6895993296042128E9, 0.0, 2023-07-17 15:08:49.604
132.0, -246.91972099777712, 187500.0, 187500.0, 187500.0, 187500.0, 187500.0, 187500.0, 187500.0, 0.04, -0.02, 1.012, 192.0, 0.0, 0.0, 0.0, 0.0, 0.0, 0.0, 0.0, 0.0, 0.0, 1.6895993296042657E9, 0.0, 2023-07-17 15:08:49.604
133.0, -227.2725376215622, 187500.0, 187500.0, 187500.0, 187500.0, 187500.0, 187500.0, 187500.0, 0.04, -0.02, 1.012, 192.0, 0.0, 0.0, 0.0, 0.0, 0.0, 0.0, 0.0, 0.0, 0.0, 1.6895993296044092E9, 0.0, 2023-07-17 15:08:49.604
134.0, -216.67781074974667, 187500.0, 187500.0, 187500.0, 187500.0, 187500.0, 187500.0, 187500.0, 0.04, -0.02, 1.012, 192.0, 0.0, 0.0, 0.0, 0.0, 0.0, 0.0, 0.0, 0.0, 0.0, 1.689599329604464E9, 0.0, 2023-07-17 15:08:49.604
135.0, -230.55824405649236, 187500.0, 187500.0, 187500.0, 187500.0, 187500.0, 187500.0, 187500.0, 0.04, -0.02, 1.012, 192.0, 0.0, 0.0, 0.0, 0.0, 0.0, 0.0, 0.0, 0.0, 0.0, 1.6895993296045165E9, 0.0, 2023-07-17 15:08:49.604
136.0, -248.90902625429945, 187500.0, 187500.0, 187500.0, 187500.0, 187500.0, 187500.0, 187500.0, 0.04, -0.02, 1.012, 192.0, 0.0, 0.0, 0.0, 0.0, 0.0, 0.0, 0.0, 0.0, 0.0, 1.6895993296045685E9, 0.0, 2023-07-17 15:08:49.604
137.0, -247.29970065351733, 187500.0, 187500.0, 187500.0, 187500.0, 187500.0, 187500.0, 187500.0, 0.04, -0.02, 1.012, 192.0, 0.0, 0.0, 0.0, 0.0, 0.0, 0.0, 0.0, 0.0, 0.0, 1.6895993296046286E9, 0.0, 2023-07-17 15:08:49.604
138.0, -227.11607541037506, 187500.0, 187500.0, 187500.0, 187500.0, 187500.0, 187500.0, 187500.0, 0.04, -0.02, 1.012, 192.0, 0.0, 0.0, 0.0, 0.0, 0.0, 0.0, 0.0, 0.0, 0.0, 1.6895993296046748E9, 0.0, 2023-07-17 15:08:49.604
139.0, -216.4542933051936, 187500.0, 187500.0, 187500.0, 187500.0, 187500.0, 187500.0, 187500.0, 0.038, -0.018000000000000002, 1.01, 192.0, 1.0, 48.0, 255.0, 112.0, 31.0, 144.0, 0.0, 0.0, 0.0, 1.6895993296047237E9, 0.0, 2023-07-17 15:08:49.604
140.0, -229.57476730045883, 187500.0, 187500.0, 187500.0, 187500.0, 187500.0, 187500.0, 187500.0, 0.038, -0.018000000000000002, 1.01, 192.0, 0.0, 0.0, 0.0, 0.0, 0.0, 0.0, 0.0, 0.0, 0.0, 1.689599329604875E9, 0.0, 2023-07-17 15:08:49.604
141.0, -247.97025298717656, 187500.0, 187500.0, 187500.0, 187500.0, 187500.0, 187500.0, 187500.0, 0.038, -0.018000000000000002, 1.01, 192.0, 0.0, 0.0, 0.0, 0.0, 0.0, 0.0, 0.0, 0.0, 0.0, 1.6895993296049304E9, 0.0, 2023-07-17 15:08:49.604
142.0, -246.2044651752073, 187500.0, 187500.0, 187500.0, 187500.0, 187500.0, 187500.0, 187500.0, 0.038, -0.018000000000000002, 1.01, 192.0, 0.0, 0.0, 0.0, 0.0, 0.0, 0.0, 0.0, 0.0, 0.0, 1.6895993296051326E9, 0.0, 2023-07-17 15:08:49.605
143.0, -226.40081958780524, 187500.0, 187500.0, 187500.0, 187500.0, 187500.0, 187500.0, 187500.0, 0.038, -0.018000000000000002, 1.01, 192.0, 0.0, 0.0, 0.0, 0.0, 0.0, 0.0, 0.0, 0.0, 0.0, 1.6895993296051767E9, 0.0, 2023-07-17 15:08:49.605
144.0, -215.82844446044498, 187500.0, 187500.0, 187500.0, 187500.0, 187500.0, 187500.0, 187500.0, 0.038, -0.018000000000000002, 1.01, 192.0, 0.0, 0.0, 0.0, 0.0, 0.0, 0.0, 0.0, 0.0, 0.0, 1.68959932960524E9, 0.0, 2023-07-17 15:08:49.605
145.0, -228.7924562445231, 187500.0, 187500.0, 187500.0, 187500.0, 187500.0, 187500.0, 187500.0, 0.038, -0.018000000000000002, 1.01, 192.0, 0.0, 0.0, 0.0, 0.0, 0.0, 0.0, 0.0, 0.0, 0.0, 1.6895993296052852E9, 0.0, 2023-07-17 15:08:49.605
146.0, -247.41145937579387, 187500.0, 187500.0, 187500.0, 187500.0, 187500.0, 187500.0, 187500.0, 0.038, -0.018000000000000002, 1.01, 192.0, 0.0, 0.0, 0.0, 0.0, 0.0, 0.0, 0.0, 0.0, 0.0, 1.689599329605337E9, 0.0, 2023-07-17 15:08:49.605
147.0, -246.31622389748384, 187500.0, 187500.0, 187500.0, 187500.0, 187500.0, 187500.0, 187500.0, 0.038, -0.018000000000000002, 1.01, 192.0, 0.0, 0.0, 0.0, 0.0, 0.0, 0.0, 0.0, 0.0, 0.0, 1.6895993296055255E9, 0.0, 2023-07-17 15:08:49.605
148.0, -227.71957251066834, 187500.0, 187500.0, 187500.0, 187500.0, 187500.0, 187500.0, 187500.0, 0.038, -0.018000000000000002, 1.01, 192.0, 0.0, 0.0, 0.0, 0.0, 0.0, 0.0, 0.0, 0.0, 0.0, 1.6895993296056004E9, 0.0, 2023-07-17 15:08:49.605
149.0, -216.72251423865728, 187500.0, 187500.0, 187500.0, 187500.0, 187500.0, 187500.0, 187500.0, 0.034, -0.016, 1.012, 192.0, 1.0, 16.0, 255.0, 128.0, 31.0, 160.0, 0.0, 0.0, 0.0, 1.6895993296056688E9, 0.0, 2023-07-17 15:08:49.605
150.0, -229.23949113362923, 187500.0, 187500.0, 187500.0, 187500.0, 187500.0, 187500.0, 187500.0, 0.034, -0.016, 1.012, 192.0, 0.0, 0.0, 0.0, 0.0, 0.0, 0.0, 0.0, 0.0, 0.0, 1.6895993296057365E9, 0.0, 2023-07-17 15:08:49.605
151.0, -247.34440414242795, 187500.0, 187500.0, 187500.0, 187500.0, 187500.0, 187500.0, 187500.0, 0.034, -0.016, 1.012, 192.0, 0.0, 0.0, 0.0, 0.0, 0.0, 0.0, 0.0, 0.0, 0.0, 1.689599329605837E9, 0.0, 2023-07-17 15:08:49.605
152.0, -246.69620355322405, 187500.0, 187500.0, 187500.0, 187500.0, 187500.0, 187500.0, 187500.0, 0.034, -0.016, 1.012, 192.0, 0.0, 0.0, 0.0, 0.0, 0.0, 0.0, 0.0, 0.0, 0.0, 1.6895993296059008E9, 0.0, 2023-07-17 15:08:49.605
153.0, -225.97613644315442, 187500.0, 187500.0, 187500.0, 187500.0, 187500.0, 187500.0, 187500.0, 0.034, -0.016, 1.012, 192.0, 0.0, 0.0, 0.0, 0.0, 0.0, 0.0, 0.0, 0.0, 0.0, 1.6895993296059625E9, 0.0, 2023-07-17 15:08:49.605
154.0, -215.78374097153437, 187500.0, 187500.0, 187500.0, 187500.0, 187500.0, 187500.0, 187500.0, 0.034, -0.016, 1.012, 192.0, 0.0, 0.0, 0.0, 0.0, 0.0, 0.0, 0.0, 0.0, 0.0, 1.6895993296060262E9, 0.0, 2023-07-17 15:08:49.606
155.0, -229.37360160036107, 187500.0, 187500.0, 187500.0, 187500.0, 187500.0, 187500.0, 187500.0, 0.034, -0.016, 1.012, 192.0, 0.0, 0.0, 0.0, 0.0, 0.0, 0.0, 0.0, 0.0, 0.0, 1.6895993296060908E9, 0.0, 2023-07-17 15:08:49.606
156.0, -248.97608148766537, 187500.0, 187500.0, 187500.0, 187500.0, 187500.0, 187500.0, 187500.0, 0.034, -0.016, 1.012, 192.0, 0.0, 0.0, 0.0, 0.0, 0.0, 0.0, 0.0, 0.0, 0.0, 1.6895993296061525E9, 0.0, 2023-07-17 15:08:49.606
157.0, -247.5232180980704, 187500.0, 187500.0, 187500.0, 187500.0, 187500.0, 187500.0, 187500.0, 0.034, -0.016, 1.012, 192.0, 0.0, 0.0, 0.0, 0.0, 0.0, 0.0, 0.0, 0.0, 0.0, 1.689599329606463E9, 0.0, 2023-07-17 15:08:49.606
158.0, -226.11024690988626, 187500.0, 187500.0, 187500.0, 187500.0, 187500.0, 187500.0, 187500.0, 0.034, -0.016, 1.012, 192.0, 0.0, 0.0, 0.0, 0.0, 0.0, 0.0, 0.0, 0.0, 0.0, 1.6895993296065233E9, 0.0, 2023-07-17 15:08:49.606
159.0, -214.9120229377774, 187500.0, 187500.0, 187500.0, 187500.0, 187500.0, 187500.0, 187500.0, 0.036000000000000004, -0.018000000000000002, 1.012, 192.0, 1.0, 32.0, 255.0, 112.0, 31.0, 160.0, 0.0, 0.0, 0.0, 1.6895993296065717E9, 0.0, 2023-07-17 15:08:49.606
160.0, -229.4853603226376, 187500.0, 187500.0, 187500.0, 187500.0, 187500.0, 187500.0, 187500.0, 0.036000000000000004, -0.018000000000000002, 1.012, 192.0, 0.0, 0.0, 0.0, 0.0, 0.0, 0.0, 0.0, 0.0, 0.0, 1.6895993296066256E9, 0.0, 2023-07-17 15:08:49.606
161.0, -248.4172878762827, 187500.0, 187500.0, 187500.0, 187500.0, 187500.0, 187500.0, 187500.0, 0.036000000000000004, -0.018000000000000002, 1.012, 192.0, 0.0, 0.0, 0.0, 0.0, 0.0, 0.0, 0.0, 0.0, 0.0, 1.689599329607406E9, 0.0, 2023-07-17 15:08:49.607
162.0, -246.58444483094752, 187500.0, 187500.0, 187500.0, 187500.0, 187500.0, 187500.0, 187500.0, 0.036000000000000004, -0.018000000000000002, 1.012, 192.0, 0.0, 0.0, 0.0, 0.0, 0.0, 0.0, 0.0, 0.0, 0.0, 1.6895993296079552E9, 0.0, 2023-07-17 15:08:49.607
163.0, -225.79732248751193, 187500.0, 187500.0, 187500.0, 187500.0, 187500.0, 187500.0, 187500.0, 0.036000000000000004, -0.018000000000000002, 1.012, 192.0, 0.0, 0.0, 0.0, 0.0, 0.0, 0.0, 0.0, 0.0, 0.0, 1.6895993296082313E9, 0.0, 2023-07-17 15:08:49.608
164.0, -215.62727876034722, 187500.0, 187500.0, 187500.0, 187500.0, 187500.0, 187500.0, 187500.0, 0.036000000000000004, -0.018000000000000002, 1.012, 192.0, 0.0, 0.0, 0.0, 0.0, 0.0, 0.0, 0.0, 0.0, 0.0, 1.689599329608332E9, 0.0, 2023-07-17 15:08:49.608
165.0, -229.5077120670929, 187500.0, 187500.0, 187500.0, 187500.0, 187500.0, 187500.0, 187500.0, 0.036000000000000004, -0.018000000000000002, 1.012, 192.0, 0.0, 0.0, 0.0, 0.0, 0.0, 0.0, 0.0, 0.0, 0.0, 1.6895993296084063E9, 0.0, 2023-07-17 15:08:49.608
166.0, -249.19959893221844, 187500.0, 187500.0, 187500.0, 187500.0, 187500.0, 187500.0, 187500.0, 0.036000000000000004, -0.018000000000000002, 1.012, 192.0, 0.0, 0.0, 0.0, 0.0, 0.0, 0.0, 0.0, 0.0, 0.0, 1.6895993296085608E9, 0.0, 2023-07-17 15:08:49.608
167.0, -247.65732856480224, 187500.0, 187500.0, 187500.0, 187500.0, 187500.0, 187500.0, 187500.0, 0.036000000000000004, -0.018000000000000002, 1.012, 192.0, 0.0, 0.0, 0.0, 0.0, 0.0, 0.0, 0.0, 0.0, 0.0, 1.689599329608622E9, 0.0, 2023-07-17 15:08:49.608
168.0, -226.66904052126893, 187500.0, 187500.0, 187500.0, 187500.0, 187500.0, 187500.0, 187500.0, 0.036000000000000004, -0.018000000000000002, 1.012, 192.0, 0.0, 0.0, 0.0, 0.0, 0.0, 0.0, 0.0, 0.0, 0.0, 1.6895993296086683E9, 0.0, 2023-07-17 15:08:49.608
169.0, -215.40376131579416, 187500.0, 187500.0, 187500.0, 187500.0, 187500.0, 187500.0, 187500.0, 0.034, -0.014, 1.006, 192.0, 1.0, 16.0, 255.0, 144.0, 31.0, 112.0, 0.0, 0.0, 0.0, 1.6895993296098464E9, 0.0, 2023-07-17 15:08:49.609
170.0, -229.37360160036107, 187500.0, 187500.0, 187500.0, 187500.0, 187500.0, 187500.0, 187500.0, 0.034, -0.014, 1.006, 192.0, 0.0, 0.0, 0.0, 0.0, 0.0, 0.0, 0.0, 0.0, 0.0, 1.6895993296099138E9, 0.0, 2023-07-17 15:08:49.609
171.0, -248.3725843873721, 187500.0, 187500.0, 187500.0, 187500.0, 187500.0, 187500.0, 187500.0, 0.034, -0.014, 1.006, 192.0, 0.0, 0.0, 0.0, 0.0, 0.0, 0.0, 0.0, 0.0, 0.0, 1.689599329609968E9, 0.0, 2023-07-17 15:08:49.609
172.0, -247.12088669787488, 187500.0, 187500.0, 187500.0, 187500.0, 187500.0, 187500.0, 187500.0, 0.034, -0.014, 1.006, 192.0, 0.0, 0.0, 0.0, 0.0, 0.0, 0.0, 0.0, 0.0, 0.0, 1.689599329610116E9, 0.0, 2023-07-17 15:08:49.610
173.0, -226.66904052126893, 187500.0, 187500.0, 187500.0, 187500.0, 187500.0, 187500.0, 187500.0, 0.034, -0.014, 1.006, 192.0, 0.0, 0.0, 0.0, 0.0, 0.0, 0.0, 0.0, 0.0, 0.0, 1.68959932961017E9, 0.0, 2023-07-17 15:08:49.610
174.0, -215.64963050480253, 187500.0, 187500.0, 187500.0, 187500.0, 187500.0, 187500.0, 187500.0, 0.034, -0.014, 1.006, 192.0, 0.0, 0.0, 0.0, 0.0, 0.0, 0.0, 0.0, 0.0, 0.0, 1.689599329610215E9, 0.0, 2023-07-17 15:08:49.610
175.0, -229.01597368907616, 187500.0, 187500.0, 187500.0, 187500.0, 187500.0, 187500.0, 187500.0, 0.034, -0.014, 1.006, 192.0, 0.0, 0.0, 0.0, 0.0, 0.0, 0.0, 0.0, 0.0, 0.0, 1.68959932961026E9, 0.0, 2023-07-17 15:08:49.610
176.0, -247.56792158698102, 187500.0, 187500.0, 187500.0, 187500.0, 187500.0, 187500.0, 187500.0, 0.034, -0.014, 1.006, 192.0, 0.0, 0.0, 0.0, 0.0, 0.0, 0.0, 0.0, 0.0, 0.0, 1.6895993296103053E9, 0.0, 2023-07-17 15:08:49.610
177.0, -246.96442448668773, 187500.0, 187500.0, 187500.0, 187500.0, 187500.0, 187500.0, 187500.0, 0.034, -0.014, 1.006, 192.0, 0.0, 0.0, 0.0, 0.0, 0.0, 0.0, 0.0, 0.0, 0.0, 1.689599329610351E9, 0.0, 2023-07-17 15:08:49.610
178.0, -226.84785447691138, 187500.0, 187500.0, 187500.0, 187500.0, 187500.0, 187500.0, 187500.0, 0.034, -0.014, 1.006, 192.0, 0.0, 0.0, 0.0, 0.0, 0.0, 0.0, 0.0, 0.0, 0.0, 1.6895993296104198E9, 0.0, 2023-07-17 15:08:49.610
179.0, -216.29783109400645, 187500.0, 187500.0, 187500.0, 187500.0, 187500.0, 187500.0, 187500.0, 0.032, -0.016, 1.002, 192.0, 1.0, 0.0, 255.0, 128.0, 31.0, 80.0, 0.0, 0.0, 0.0, 1.689599329610473E9, 0.0, 2023-07-17 15:08:49.610
180.0, -229.68652602273536, 187500.0, 187500.0, 187500.0, 187500.0, 187500.0, 187500.0, 187500.0, 0.032, -0.016, 1.002, 192.0, 0.0, 0.0, 0.0, 0.0, 0.0, 0.0, 0.0, 0.0, 0.0, 1.6895993296105275E9, 0.0, 2023-07-17 15:08:49.610
181.0, -247.99260473163187, 187500.0, 187500.0, 187500.0, 187500.0, 187500.0, 187500.0, 187500.0, 0.032, -0.016, 1.002, 192.0, 0.0, 0.0, 0.0, 0.0, 0.0, 0.0, 0.0, 0.0, 0.0, 1.6895993296105793E9, 0.0, 2023-07-17 15:08:49.610
182.0, -247.1432384423302, 187500.0, 187500.0, 187500.0, 187500.0, 187500.0, 187500.0, 187500.0, 0.032, -0.016, 1.002, 192.0, 0.0, 0.0, 0.0, 0.0, 0.0, 0.0, 0.0, 0.0, 0.0, 1.689599329611784E9, 0.0, 2023-07-17 15:08:49.611
183.0, -226.9149097102773, 187500.0, 187500.0, 187500.0, 187500.0, 187500.0, 187500.0, 187500.0, 0.032, -0.016, 1.002, 192.0, 0.0, 0.0, 0.0, 0.0, 0.0, 0.0, 0.0, 0.0, 0.0, 1.6895993296119053E9, 0.0, 2023-07-17 15:08:49.611
184.0, -216.1413688828193, 187500.0, 187500.0, 187500.0, 187500.0, 187500.0, 187500.0, 187500.0, 0.032, -0.016, 1.002, 192.0, 0.0, 0.0, 0.0, 0.0, 0.0, 0.0, 0.0, 0.0, 0.0, 1.6895993296119547E9, 0.0, 2023-07-17 15:08:49.611
185.0, -229.75358125610128, 187500.0, 187500.0, 187500.0, 187500.0, 187500.0, 187500.0, 187500.0, 0.032, -0.016, 1.002, 192.0, 0.0, 0.0, 0.0, 0.0, 0.0, 0.0, 0.0, 0.0, 0.0, 1.6895993296120028E9, 0.0, 2023-07-17 15:08:49.612
186.0, -248.86432276538883, 187500.0, 187500.0, 187500.0, 187500.0, 187500.0, 187500.0, 187500.0, 0.032, -0.016, 1.002, 192.0, 0.0, 0.0, 0.0, 0.0, 0.0, 0.0, 0.0, 0.0, 0.0, 1.6895993296120512E9, 0.0, 2023-07-17 15:08:49.612
187.0, -248.7525640431123, 187500.0, 187500.0, 187500.0, 187500.0, 187500.0, 187500.0, 187500.0, 0.032, -0.016, 1.002, 192.0, 0.0, 0.0, 0.0, 0.0, 0.0, 0.0, 0.0, 0.0, 0.0, 1.6895993296121533E9, 0.0, 2023-07-17 15:08:49.612
188.0, -227.16077889928567, 187500.0, 187500.0, 187500.0, 187500.0, 187500.0, 187500.0, 187500.0, 0.032, -0.016, 1.002, 192.0, 0.0, 0.0, 0.0, 0.0, 0.0, 0.0, 0.0, 0.0, 0.0, 1.6895993296122022E9, 0.0, 2023-07-17 15:08:49.612
189.0, -215.78374097153437, 187500.0, 187500.0, 187500.0, 187500.0, 187500.0, 187500.0, 187500.0, 0.034, -0.018000000000000002, 1.002, 192.0, 1.0, 16.0, 255.0, 112.0, 31.0, 80.0, 0.0, 0.0, 0.0, 1.6895993296122503E9, 0.0, 2023-07-17 15:08:49.612
190.0, -228.85951147788901, 187500.0, 187500.0, 187500.0, 187500.0, 187500.0, 187500.0, 187500.0, 0.034, -0.018000000000000002, 1.002, 192.0, 0.0, 0.0, 0.0, 0.0, 0.0, 0.0, 0.0, 0.0, 0.0, 1.6895993296122992E9, 0.0, 2023-07-17 15:08:49.612
191.0, -248.730212298657, 187500.0, 187500.0, 187500.0, 187500.0, 187500.0, 187500.0, 187500.0, 0.034, -0.018000000000000002, 1.002, 192.0, 0.0, 0.0, 0.0, 0.0, 0.0, 0.0, 0.0, 0.0, 0.0, 1.6895993296123474E9, 0.0, 2023-07-17 15:08:49.612
192.0, -248.730212298657, 187500.0, 187500.0, 187500.0, 187500.0, 187500.0, 187500.0, 187500.0, 0.034, -0.018000000000000002, 1.002, 192.0, 0.0, 0.0, 0.0, 0.0, 0.0, 0.0, 0.0, 0.0, 0.0, 1.6895993296123953E9, 0.0, 2023-07-17 15:08:49.612
193.0, -226.98196494364322, 187500.0, 187500.0, 187500.0, 187500.0, 187500.0, 187500.0, 187500.0, 0.034, -0.018000000000000002, 1.002, 192.0, 0.0, 0.0, 0.0, 0.0, 0.0, 0.0, 0.0, 0.0, 0.0, 1.6895993296124434E9, 0.0, 2023-07-17 15:08:49.612
194.0, -216.65545900529136, 187500.0, 187500.0, 187500.0, 187500.0, 187500.0, 187500.0, 187500.0, 0.034, -0.018000000000000002, 1.002, 192.0, 0.0, 0.0, 0.0, 0.0, 0.0, 0.0, 0.0, 0.0, 0.0, 1.6895993296124895E9, 0.0, 2023-07-17 15:08:49.612
195.0, -229.53006381154822, 187500.0, 187500.0, 187500.0, 187500.0, 187500.0, 187500.0, 187500.0, 0.034, -0.018000000000000002, 1.002, 192.0, 0.0, 0.0, 0.0, 0.0, 0.0, 0.0, 0.0, 0.0, 0.0, 1.6895993296125376E9, 0.0, 2023-07-17 15:08:49.612
196.0, -248.59610183192515, 187500.0, 187500.0, 187500.0, 187500.0, 187500.0, 187500.0, 187500.0, 0.034, -0.018000000000000002, 1.002, 192.0, 0.0, 0.0, 0.0, 0.0, 0.0, 0.0, 0.0, 0.0, 0.0, 1.6895993296125937E9, 0.0, 2023-07-17 15:08:49.612
197.0, -246.96442448668773, 187500.0, 187500.0, 187500.0, 187500.0, 187500.0, 187500.0, 187500.0, 0.034, -0.018000000000000002, 1.002, 192.0, 0.0, 0.0, 0.0, 0.0, 0.0, 0.0, 0.0, 0.0, 0.0, 1.6895993296126404E9, 0.0, 2023-07-17 15:08:49.612
198.0, -226.51257831008178, 187500.0, 187500.0, 187500.0, 187500.0, 187500.0, 187500.0, 187500.0, 0.034, -0.018000000000000002, 1.002, 192.0, 0.0, 0.0, 0.0, 0.0, 0.0, 0.0, 0.0, 0.0, 0.0, 1.6895993296126945E9, 0.0, 2023-07-17 15:08:49.612
199.0, -215.8954996938109, 187500.0, 187500.0, 187500.0, 187500.0, 187500.0, 187500.0, 187500.0, 0.036000000000000004, -0.026000000000000002, 1.006, 192.0, 1.0, 32.0, 255.0, 48.0, 31.0, 112.0, 0.0, 0.0, 0.0, 1.6895993296127443E9, 0.0, 2023-07-17 15:08:49.612
200.0, -228.8371597334337, 187500.0, 187500.0, 187500.0, 187500.0, 187500.0, 187500.0, 187500.0, 0.036000000000000004, -0.026000000000000002, 1.006, 192.0, 0.0, 0.0, 0.0, 0.0, 0.0, 0.0, 0.0, 0.0, 0.0, 1.68959932961293E9, 0.0, 2023-07-17 15:08:49.612
201.0, -247.1432384423302, 187500.0, 187500.0, 187500.0, 187500.0, 187500.0, 187500.0, 187500.0, 0.036000000000000004, -0.026000000000000002, 1.006, 192.0, 0.0, 0.0, 0.0, 0.0, 0.0, 0.0, 0.0, 0.0, 0.0, 1.689599329612988E9, 0.0, 2023-07-17 15:08:49.612
202.0, -247.4785146091598, 187500.0, 187500.0, 187500.0, 187500.0, 187500.0, 187500.0, 187500.0, 0.036000000000000004, -0.026000000000000002, 1.006, 192.0, 0.0, 0.0, 0.0, 0.0, 0.0, 0.0, 0.0, 0.0, 0.0, 1.689599329613045E9, 0.0, 2023-07-17 15:08:49.613
203.0, -227.09372366591975, 187500.0, 187500.0, 187500.0, 187500.0, 187500.0, 187500.0, 187500.0, 0.036000000000000004, -0.026000000000000002, 1.006, 192.0, 0.0, 0.0, 0.0, 0.0, 0.0, 0.0, 0.0, 0.0, 0.0, 1.6895993296131904E9, 0.0, 2023-07-17 15:08:49.613
204.0, -215.02378166005394, 187500.0, 187500.0, 187500.0, 187500.0, 187500.0, 187500.0, 187500.0, 0.036000000000000004, -0.026000000000000002, 1.006, 192.0, 0.0, 0.0, 0.0, 0.0, 0.0, 0.0, 0.0, 0.0, 0.0, 1.6895993296132393E9, 0.0, 2023-07-17 15:08:49.613
205.0, -228.1219039108639, 187500.0, 187500.0, 187500.0, 187500.0, 187500.0, 187500.0, 187500.0, 0.036000000000000004, -0.026000000000000002, 1.006, 192.0, 0.0, 0.0, 0.0, 0.0, 0.0, 0.0, 0.0, 0.0, 0.0, 1.6895993296132832E9, 0.0, 2023-07-17 15:08:49.613
206.0, -248.1043634539084, 187500.0, 187500.0, 187500.0, 187500.0, 187500.0, 187500.0, 187500.0, 0.036000000000000004, -0.026000000000000002, 1.006, 192.0, 0.0, 0.0, 0.0, 0.0, 0.0, 0.0, 0.0, 0.0, 0.0, 1.6895993296133285E9, 0.0, 2023-07-17 15:08:49.613
207.0, -247.45616286470448, 187500.0, 187500.0, 187500.0, 187500.0, 187500.0, 187500.0, 187500.0, 0.036000000000000004, -0.026000000000000002, 1.006, 192.0, 0.0, 0.0, 0.0, 0.0, 0.0, 0.0, 0.0, 0.0, 0.0, 1.6895993296133735E9, 0.0, 2023-07-17 15:08:49.613
208.0, -226.75844749909015, 187500.0, 187500.0, 187500.0, 187500.0, 187500.0, 187500.0, 187500.0, 0.036000000000000004, -0.026000000000000002, 1.006, 192.0, 0.0, 0.0, 0.0, 0.0, 0.0, 0.0, 0.0, 0.0, 0.0, 1.6895993296134193E9, 0.0, 2023-07-17 15:08:49.613
209.0, -216.18607237172992, 187500.0, 187500.0, 187500.0, 187500.0, 187500.0, 187500.0, 187500.0, 0.034, -0.018000000000000002, 1.006, 192.0, 1.0, 16.0, 255.0, 112.0, 31.0, 112.0, 0.0, 0.0, 0.0, 1.6895993296134644E9, 0.0, 2023-07-17 15:08:49.613
210.0, -229.30654636699515, 187500.0, 187500.0, 187500.0, 187500.0, 187500.0, 187500.0, 187500.0, 0.034, -0.018000000000000002, 1.006, 192.0, 0.0, 0.0, 0.0, 0.0, 0.0, 0.0, 0.0, 0.0, 0.0, 1.6895993296135314E9, 0.0, 2023-07-17 15:08:49.613
211.0, -248.01495647608718, 187500.0, 187500.0, 187500.0, 187500.0, 187500.0, 187500.0, 187500.0, 0.034, -0.018000000000000002, 1.006, 192.0, 0.0, 0.0, 0.0, 0.0, 0.0, 0.0, 0.0, 0.0, 0.0, 1.6895993296135828E9, 0.0, 2023-07-17 15:08:49.613
212.0, -247.59027333143632, 187500.0, 187500.0, 187500.0, 187500.0, 187500.0, 187500.0, 187500.0, 0.034, -0.018000000000000002, 1.006, 192.0, 0.0, 0.0, 0.0, 0.0, 0.0, 0.0, 0.0, 0.0, 0.0, 1.689599329613641E9, 0.0, 2023-07-17 15:08:49.613
213.0, -227.98779344413205, 187500.0, 187500.0, 187500.0, 187500.0, 187500.0, 187500.0, 187500.0, 0.034, -0.018000000000000002, 1.006, 192.0, 0.0, 0.0, 0.0, 0.0, 0.0, 0.0, 0.0, 0.0, 0.0, 1.689599329613698E9, 0.0, 2023-07-17 15:08:49.613
214.0, -216.05196190499808, 187500.0, 187500.0, 187500.0, 187500.0, 187500.0, 187500.0, 187500.0, 0.034, -0.018000000000000002, 1.006, 192.0, 0.0, 0.0, 0.0, 0.0, 0.0, 0.0, 0.0, 0.0, 0.0, 1.6895993296137428E9, 0.0, 2023-07-17 15:08:49.613
215.0, -228.8371597334337, 187500.0, 187500.0, 187500.0, 187500.0, 187500.0, 187500.0, 187500.0, 0.034, -0.018000000000000002, 1.006, 192.0, 0.0, 0.0, 0.0, 0.0, 0.0, 0.0, 0.0, 0.0, 0.0, 1.6895993296138248E9, 0.0, 2023-07-17 15:08:49.613
216.0, -248.3949361318274, 187500.0, 187500.0, 187500.0, 187500.0, 187500.0, 187500.0, 187500.0, 0.034, -0.018000000000000002, 1.006, 192.0, 0.0, 0.0, 0.0, 0.0, 0.0, 0.0, 0.0, 0.0, 0.0, 1.6895993296139116E9, 0.0, 2023-07-17 15:08:49.613
217.0, -248.03730822054249, 187500.0, 187500.0, 187500.0, 187500.0, 187500.0, 187500.0, 187500.0, 0.034, -0.018000000000000002, 1.006, 192.0, 0.0, 0.0, 0.0, 0.0, 0.0, 0.0, 0.0, 0.0, 0.0, 1.6895993296140227E9, 0.0, 2023-07-17 15:08:49.614
218.0, -227.40664808829405, 187500.0, 187500.0, 187500.0, 187500.0, 187500.0, 187500.0, 187500.0, 0.034, -0.018000000000000002, 1.006, 192.0, 0.0, 0.0, 0.0, 0.0, 0.0, 0.0, 0.0, 0.0, 0.0, 1.6895993296141992E9, 0.0, 2023-07-17 15:08:49.614
219.0, -215.5825752714366, 187500.0, 187500.0, 187500.0, 187500.0, 187500.0, 187500.0, 187500.0, 0.04, -0.02, 1.004, 192.0, 1.0, 64.0, 255.0, 96.0, 31.0, 96.0, 0.0, 0.0, 0.0, 1.689599329614251E9, 0.0, 2023-07-17 15:08:49.614
220.0, -228.63599403333595, 187500.0, 187500.0, 187500.0, 187500.0, 187500.0, 187500.0, 187500.0, 0.04, -0.02, 1.004, 192.0, 0.0, 0.0, 0.0, 0.0, 0.0, 0.0, 0.0, 0.0, 0.0, 1.6895993296143043E9, 0.0, 2023-07-17 15:08:49.614
221.0, -247.92554949826595, 187500.0, 187500.0, 187500.0, 187500.0, 187500.0, 187500.0, 187500.0, 0.04, -0.02, 1.004, 192.0, 0.0, 0.0, 0.0, 0.0, 0.0, 0.0, 0.0, 0.0, 0.0, 1.689599329614363E9, 0.0, 2023-07-17 15:08:49.614
222.0, -248.7078605542017, 187500.0, 187500.0, 187500.0, 187500.0, 187500.0, 187500.0, 187500.0, 0.04, -0.02, 1.004, 192.0, 0.0, 0.0, 0.0, 0.0, 0.0, 0.0, 0.0, 0.0, 0.0, 1.6895993296144094E9, 0.0, 2023-07-17 15:08:49.614
223.0, -227.31724111047282, 187500.0, 187500.0, 187500.0, 187500.0, 187500.0, 187500.0, 187500.0, 0.04, -0.02, 1.004, 192.0, 0.0, 0.0, 0.0, 0.0, 0.0, 0.0, 0.0, 0.0, 0.0, 1.6895993296144724E9, 0.0, 2023-07-17 15:08:49.614
224.0, -215.13554038233048, 187500.0, 187500.0, 187500.0, 187500.0, 187500.0, 187500.0, 187500.0, 0.04, -0.02, 1.004, 192.0, 0.0, 0.0, 0.0, 0.0, 0.0, 0.0, 0.0, 0.0, 0.0, 1.6895993296145227E9, 0.0, 2023-07-17 15:08:49.614
225.0, -229.1277324113527, 187500.0, 187500.0, 187500.0, 187500.0, 187500.0, 187500.0, 187500.0, 0.04, -0.02, 1.004, 192.0, 0.0, 0.0, 0.0, 0.0, 0.0, 0.0, 0.0, 0.0, 0.0, 1.6895993300833147E9, 0.0, 2023-07-17 15:08:50.083
226.0, -248.99843323212068, 187500.0, 187500.0, 187500.0, 187500.0, 187500.0, 187500.0, 187500.0, 0.04, -0.02, 1.004, 192.0, 0.0, 0.0, 0.0, 0.0, 0.0, 0.0, 0.0, 0.0, 0.0, 1.6895993300836875E9, 0.0, 2023-07-17 15:08:50.083
227.0, -248.30552915400617, 187500.0, 187500.0, 187500.0, 187500.0, 187500.0, 187500.0, 187500.0, 0.04, -0.02, 1.004, 192.0, 0.0, 0.0, 0.0, 0.0, 0.0, 0.0, 0.0, 0.0, 0.0, 1.6895993300839567E9, 0.0, 2023-07-17 15:08:50.083
228.0, -227.49605506611528, 187500.0, 187500.0, 187500.0, 187500.0, 187500.0, 187500.0, 187500.0, 0.04, -0.02, 1.004, 192.0, 0.0, 0.0, 0.0, 0.0, 0.0, 0.0, 0.0, 0.0, 0.0, 1.6895993300842197E9, 0.0, 2023-07-17 15:08:50.084
229.0, -215.69433399371314, 187500.0, 187500.0, 187500.0, 187500.0, 187500.0, 187500.0, 187500.0, 0.04, -0.024, 1.008, 192.0, 1.0, 64.0, 255.0, 64.0, 31.0, 128.0, 0.0, 0.0, 0.0, 1.6895993300844312E9, 0.0, 2023-07-17 15:08:50.084
230.0, -228.36777309987227, 187500.0, 187500.0, 187500.0, 187500.0, 187500.0, 187500.0, 187500.0, 0.04, -0.024, 1.008, 192.0, 0.0, 0.0, 0.0, 0.0, 0.0, 0.0, 0.0, 0.0, 0.0, 1.6895993300845509E9, 0.0, 2023-07-17 15:08:50.084
231.0, -247.70203205371286, 187500.0, 187500.0, 187500.0, 187500.0, 187500.0, 187500.0, 187500.0, 0.04, -0.024, 1.008, 192.0, 0.0, 0.0, 0.0, 0.0, 0.0, 0.0, 0.0, 0.0, 0.0, 1.6895993300846827E9, 0.0, 2023-07-17 15:08:50.084
232.0, -247.7914390315341, 187500.0, 187500.0, 187500.0, 187500.0, 187500.0, 187500.0, 187500.0, 0.04, -0.024, 1.008, 192.0, 0.0, 0.0, 0.0, 0.0, 0.0, 0.0, 0.0, 0.0, 0.0, 1.689599330084813E9, 0.0, 2023-07-17 15:08:50.084
233.0, -227.5854620439365, 187500.0, 187500.0, 187500.0, 187500.0, 187500.0, 187500.0, 187500.0, 0.04, -0.024, 1.008, 192.0, 0.0, 0.0, 0.0, 0.0, 0.0, 0.0, 0.0, 0.0, 0.0, 1.6895993300852537E9, 0.0, 2023-07-17 15:08:50.085
234.0, -216.02961016054277, 187500.0, 187500.0, 187500.0, 187500.0, 187500.0, 187500.0, 187500.0, 0.04, -0.024, 1.008, 192.0, 0.0, 0.0, 0.0, 0.0, 0.0, 0.0, 0.0, 0.0, 0.0, 1.68959933008537E9, 0.0, 2023-07-17 15:08:50.085
235.0, -228.1666073997745, 187500.0, 187500.0, 187500.0, 187500.0, 187500.0, 187500.0, 187500.0, 0.04, -0.024, 1.008, 192.0, 0.0, 0.0, 0.0, 0.0, 0.0, 0.0, 0.0, 0.0, 0.0, 1.689599330085496E9, 0.0, 2023-07-17 15:08:50.085
236.0, -248.32788089846147, 187500.0, 187500.0, 187500.0, 187500.0, 187500.0, 187500.0, 187500.0, 0.04, -0.024, 1.008, 192.0, 0.0, 0.0, 0.0, 0.0, 0.0, 0.0, 0.0, 0.0, 0.0, 1.6895993300856147E9, 0.0, 2023-07-17 15:08:50.085
237.0, -247.85849426490003, 187500.0, 187500.0, 187500.0, 187500.0, 187500.0, 187500.0, 187500.0, 0.04, -0.024, 1.008, 192.0, 0.0, 0.0, 0.0, 0.0, 0.0, 0.0, 0.0, 0.0, 0.0, 1.689599330085739E9, 0.0, 2023-07-17 15:08:50.085
238.0, -227.36194459938343, 187500.0, 187500.0, 187500.0, 187500.0, 187500.0, 187500.0, 187500.0, 0.04, -0.024, 1.008, 192.0, 0.0, 0.0, 0.0, 0.0, 0.0, 0.0, 0.0, 0.0, 0.0, 1.6895993300858614E9, 0.0, 2023-07-17 15:08:50.085
239.0, -216.20842411618523, 187500.0, 187500.0, 187500.0, 187500.0, 187500.0, 187500.0, 187500.0, 0.034, -0.022, 1.01, 192.0, 1.0, 16.0, 255.0, 80.0, 31.0, 144.0, 0.0, 0.0, 0.0, 1.6895993300859718E9, 0.0, 2023-07-17 15:08:50.085
240.0, -229.23949113362923, 187500.0, 187500.0, 187500.0, 187500.0, 187500.0, 187500.0, 187500.0, 0.034, -0.022, 1.01, 192.0, 0.0, 0.0, 0.0, 0.0, 0.0, 0.0, 0.0, 0.0, 0.0, 1.6895993300860808E9, 0.0, 2023-07-17 15:08:50.086
241.0, -247.88084600935534, 187500.0, 187500.0, 187500.0, 187500.0, 187500.0, 187500.0, 187500.0, 0.034, -0.022, 1.01, 192.0, 0.0, 0.0, 0.0, 0.0, 0.0, 0.0, 0.0, 0.0, 0.0, 1.689599330086161E9, 0.0, 2023-07-17 15:08:50.086
242.0, -247.25499716460672, 187500.0, 187500.0, 187500.0, 187500.0, 187500.0, 187500.0, 187500.0, 0.034, -0.022, 1.01, 192.0, 0.0, 0.0, 0.0, 0.0, 0.0, 0.0, 0.0, 0.0, 0.0, 1.68959933008621E9, 0.0, 2023-07-17 15:08:50.086
243.0, -227.2054823881963, 187500.0, 187500.0, 187500.0, 187500.0, 187500.0, 187500.0, 187500.0, 0.034, -0.022, 1.01, 192.0, 0.0, 0.0, 0.0, 0.0, 0.0, 0.0, 0.0, 0.0, 0.0, 1.6895993300862594E9, 0.0, 2023-07-17 15:08:50.086
244.0, -215.42611306024946, 187500.0, 187500.0, 187500.0, 187500.0, 187500.0, 187500.0, 187500.0, 0.034, -0.022, 1.01, 192.0, 0.0, 0.0, 0.0, 0.0, 0.0, 0.0, 0.0, 0.0, 0.0, 1.6895993300863168E9, 0.0, 2023-07-17 15:08:50.086
245.0, -228.01014518858736, 187500.0, 187500.0, 187500.0, 187500.0, 187500.0, 187500.0, 187500.0, 0.034, -0.022, 1.01, 192.0, 0.0, 0.0, 0.0, 0.0, 0.0, 0.0, 0.0, 0.0, 0.0, 1.6895993300864253E9, 0.0, 2023-07-17 15:08:50.086
246.0, -247.59027333143632, 187500.0, 187500.0, 187500.0, 187500.0, 187500.0, 187500.0, 187500.0, 0.034, -0.022, 1.01, 192.0, 0.0, 0.0, 0.0, 0.0, 0.0, 0.0, 0.0, 0.0, 0.0, 1.6895993300865488E9, 0.0, 2023-07-17 15:08:50.086
247.0, -248.01495647608718, 187500.0, 187500.0, 187500.0, 187500.0, 187500.0, 187500.0, 187500.0, 0.034, -0.022, 1.01, 192.0, 0.0, 0.0, 0.0, 0.0, 0.0, 0.0, 0.0, 0.0, 0.0, 1.6895993300866442E9, 0.0, 2023-07-17 15:08:50.086
248.0, -227.45135157720466, 187500.0, 187500.0, 187500.0, 187500.0, 187500.0, 187500.0, 187500.0, 0.034, -0.022, 1.01, 192.0, 0.0, 0.0, 0.0, 0.0, 0.0, 0.0, 0.0, 0.0, 0.0, 1.6895993300869234E9, 0.0, 2023-07-17 15:08:50.086
249.0, -215.49316829361538, 187500.0, 187500.0, 187500.0, 187500.0, 187500.0, 187500.0, 187500.0, 0.032, -0.016, 1.008, 192.0, 1.0, 0.0, 255.0, 128.0, 31.0, 128.0, 0.0, 0.0, 0.0, 1.6895993300870533E9, 0.0, 2023-07-17 15:08:50.087
250.0, -228.34542135541696, 187500.0, 187500.0, 187500.0, 187500.0, 187500.0, 187500.0, 187500.0, 0.032, -0.016, 1.008, 192.0, 0.0, 0.0, 0.0, 0.0, 0.0, 0.0, 0.0, 0.0, 0.0, 1.6895993300871289E9, 0.0, 2023-07-17 15:08:50.087
251.0, -248.0820117094531, 187500.0, 187500.0, 187500.0, 187500.0, 187500.0, 187500.0, 187500.0, 0.032, -0.016, 1.008, 192.0, 0.0, 0.0, 0.0, 0.0, 0.0, 0.0, 0.0, 0.0, 0.0, 1.689599330087198E9, 0.0, 2023-07-17 15:08:50.087
252.0, -248.14906694281902, 187500.0, 187500.0, 187500.0, 187500.0, 187500.0, 187500.0, 187500.0, 0.032, -0.016, 1.008, 192.0, 0.0, 0.0, 0.0, 0.0, 0.0, 0.0, 0.0, 0.0, 0.0, 1.6895993300872731E9, 0.0, 2023-07-17 15:08:50.087
253.0, -227.76427599957896, 187500.0, 187500.0, 187500.0, 187500.0, 187500.0, 187500.0, 187500.0, 0.032, -0.016, 1.008, 192.0, 0.0, 0.0, 0.0, 0.0, 0.0, 0.0, 0.0, 0.0, 0.0, 1.6895993300873241E9, 0.0, 2023-07-17 15:08:50.087
254.0, -215.67198224925784, 187500.0, 187500.0, 187500.0, 187500.0, 187500.0, 187500.0, 187500.0, 0.032, -0.016, 1.008, 192.0, 0.0, 0.0, 0.0, 0.0, 0.0, 0.0, 0.0, 0.0, 0.0, 1.6895993300873716E9, 0.0, 2023-07-17 15:08:50.087
255.0, -228.59129054442533, 187500.0, 187500.0, 187500.0, 187500.0, 187500.0, 187500.0, 187500.0, 0.032, -0.016, 1.008, 192.0, 0.0, 0.0, 0.0, 0.0, 0.0, 0.0, 0.0, 0.0, 0.0, 1.6895993300874193E9, 0.0, 2023-07-17 15:08:50.087
0.0, -248.1267151983637, 187500.0, 187500.0, 187500.0, 187500.0, 187500.0, 187500.0, 187500.0, 0.032, -0.016, 1.008, 192.0, 0.0, 0.0, 0.0, 0.0, 0.0, 0.0, 0.0, 0.0, 0.0, 1.689599330087469E9, 0.0, 2023-07-17 15:08:50.087
1.0, -248.03730822054249, 187500.0, 187500.0, 187500.0, 187500.0, 187500.0, 187500.0, 187500.0, 0.032, -0.016, 1.008, 192.0, 0.0, 0.0, 0.0, 0.0, 0.0, 0.0, 0.0, 0.0, 0.0, 1.6895993300875323E9, 0.0, 2023-07-17 15:08:50.087
2.0, -226.9596131991879, 187500.0, 187500.0, 187500.0, 187500.0, 187500.0, 187500.0, 187500.0, 0.032, -0.016, 1.008, 192.0, 0.0, 0.0, 0.0, 0.0, 0.0, 0.0, 0.0, 0.0, 0.0, 1.6895993300875964E9, 0.0, 2023-07-17 15:08:50.087
3.0, -215.62727876034722, 187500.0, 187500.0, 187500.0, 187500.0, 187500.0, 187500.0, 187500.0, 0.03, -0.02, 1.006, 192.0, 0.0, 240.0, 255.0, 96.0, 31.0, 112.0, 0.0, 0.0, 0.0, 1.6895993300876653E9, 0.0, 2023-07-17 15:08:50.087
4.0, -228.63599403333595, 187500.0, 187500.0, 187500.0, 187500.0, 187500.0, 187500.0, 187500.0, 0.03, -0.02, 1.006, 192.0, 0.0, 0.0, 0.0, 0.0, 0.0, 0.0, 0.0, 0.0, 0.0, 1.689599330087741E9, 0.0, 2023-07-17 15:08:50.087
5.0, -248.30552915400617, 187500.0, 187500.0, 187500.0, 187500.0, 187500.0, 187500.0, 187500.0, 0.03, -0.02, 1.006, 192.0, 0.0, 0.0, 0.0, 0.0, 0.0, 0.0, 0.0, 0.0, 0.0, 1.689599330087808E9, 0.0, 2023-07-17 15:08:50.087
6.0, -247.90319775381064, 187500.0, 187500.0, 187500.0, 187500.0, 187500.0, 187500.0, 187500.0, 0.03, -0.02, 1.006, 192.0, 0.0, 0.0, 0.0, 0.0, 0.0, 0.0, 0.0, 0.0, 0.0, 1.6895993300878744E9, 0.0, 2023-07-17 15:08:50.087
