%OpenBCI Raw EXG Data
%Number of channels = 8
%Sample Rate = 250 Hz
%Board = OpenBCI_GUI$BoardCytonSerial
Sample Index, EXG Channel 0, EXG Channel 1, EXG Channel 2, EXG Channel 3, EXG Channel 4, EXG Channel 5, EXG Channel 6, EXG Channel 7, Accel Channel 0, Accel Channel 1, Accel Channel 2, Other, Other, Other, Other, Other, Other, Other, Analog Channel 0, Analog Channel 1, Analog Channel 2, Timestamp, Other, Timestamp (Formatted)
0.0, 0.0, 0.0, 0.0, 0.0, 0.0, 0.0, 0.0, 0.0, 0.042, -0.02, 1.002, 192.0, 1.0, 80.0, 255.0, 96.0, 31.0, 80.0, 0.0, 0.0, 0.0, 1.689599246132085E9, 0.0, 2023-07-17 15:07:26.132
1.0, -114.84326301136768, 187500.0, 187500.0, 187500.0, 187500.0, 187500.0, 187500.0, 187500.0, 0.042, -0.02, 1.002, 192.0, 0.0, 0.0, 0.0, 0.0, 0.0, 0.0, 0.0, 0.0, 0.0, 1.68959924661984E9, 0.0, 2023-07-17 15:07:26.619
2.0, -105.07555068439851, 187500.0, 187500.0, 187500.0, 187500.0, 187500.0, 187500.0, 187500.0, 0.042, -0.02, 1.002, 192.0, 0.0, 0.0, 0.0, 0.0, 0.0, 0.0, 0.0, 0.0, 0.0, 1.689599246619988E9, 0.0, 2023-07-17 15:07:26.619
3.0, -117.21254792363024, 187500.0, 187500.0, 187500.0, 187500.0, 187500.0, 187500.0, 187500.0, 0.042, -0.02, 1.002, 192.0, 0.0, 0.0, 0.0, 0.0, 0.0, 0.0, 0.0, 0.0, 0.0, 1.6895992466220915E9, 0.0, 2023-07-17 15:07:26.622
4.0, -133.12698997580887, 187500.0, 187500.0, 187500.0, 187500.0, 187500.0, 187500.0, 187500.0, 0.042, -0.02, 1.002, 192.0, 0.0, 0.0, 0.0, 0.0, 0.0, 0.0, 0.0, 0.0, 0.0, 1.6895992466224055E9, 0.0, 2023-07-17 15:07:26.622
5.0, -133.28345218699602, 187500.0, 187500.0, 187500.0, 187500.0, 187500.0, 187500.0, 187500.0, 0.042, -0.02, 1.002, 192.0, 0.0, 0.0, 0.0, 0.0, 0.0, 0.0, 0.0, 0.0, 0.0, 1.6895992466224828E9, 0.0, 2023-07-17 15:07:26.622
6.0, -115.2008909226526, 187500.0, 187500.0, 187500.0, 187500.0, 187500.0, 187500.0, 187500.0, 0.042, -0.02, 1.002, 192.0, 0.0, 0.0, 0.0, 0.0, 0.0, 0.0, 0.0, 0.0, 0.0, 1.6895992466225412E9, 0.0, 2023-07-17 15:07:26.622
7.0, -104.71792277311359, 187500.0, 187500.0, 187500.0, 187500.0, 187500.0, 187500.0, 187500.0, 0.042, -0.02, 1.002, 192.0, 0.0, 0.0, 0.0, 0.0, 0.0, 0.0, 0.0, 0.0, 0.0, 1.6895992466225965E9, 0.0, 2023-07-17 15:07:26.622
8.0, -116.43023686769449, 187500.0, 187500.0, 187500.0, 187500.0, 187500.0, 187500.0, 187500.0, 0.036000000000000004, -0.02, 1.002, 192.0, 1.0, 32.0, 255.0, 96.0, 31.0, 80.0, 0.0, 0.0, 0.0, 1.6895992466226532E9, 0.0, 2023-07-17 15:07:26.622
9.0, -133.9093010317446, 187500.0, 187500.0, 187500.0, 187500.0, 187500.0, 187500.0, 187500.0, 0.036000000000000004, -0.02, 1.002, 192.0, 0.0, 0.0, 0.0, 0.0, 0.0, 0.0, 0.0, 0.0, 0.0, 1.689599246622713E9, 0.0, 2023-07-17 15:07:26.622
10.0, -132.9034725312558, 187500.0, 187500.0, 187500.0, 187500.0, 187500.0, 187500.0, 187500.0, 0.036000000000000004, -0.02, 1.002, 192.0, 0.0, 0.0, 0.0, 0.0, 0.0, 0.0, 0.0, 0.0, 0.0, 1.6895992466227684E9, 0.0, 2023-07-17 15:07:26.622
11.0, -115.1785391781973, 187500.0, 187500.0, 187500.0, 187500.0, 187500.0, 187500.0, 187500.0, 0.036000000000000004, -0.02, 1.002, 192.0, 0.0, 0.0, 0.0, 0.0, 0.0, 0.0, 0.0, 0.0, 0.0, 1.689599246622815E9, 0.0, 2023-07-17 15:07:26.622
12.0, -105.20966115113035, 187500.0, 187500.0, 187500.0, 187500.0, 187500.0, 187500.0, 187500.0, 0.036000000000000004, -0.02, 1.002, 192.0, 0.0, 0.0, 0.0, 0.0, 0.0, 0.0, 0.0, 0.0, 0.0, 1.689599246622863E9, 0.0, 2023-07-17 15:07:26.622
13.0, -116.27377465650734, 187500.0, 187500.0, 187500.0, 187500.0, 187500.0, 187500.0, 187500.0, 0.036000000000000004, -0.02, 1.002, 192.0, 0.0, 0.0, 0.0, 0.0, 0.0, 0.0, 0.0, 0.0, 0.0, 1.689599246622918E9, 0.0, 2023-07-17 15:07:26.622
14.0, -133.64108009828092, 187500.0, 187500.0, 187500.0, 187500.0, 187500.0, 187500.0, 187500.0, 0.036000000000000004, -0.02, 1.002, 192.0, 0.0, 0.0, 0.0, 0.0, 0.0, 0.0, 0.0, 0.0, 0.0, 1.6895992466229765E9, 0.0, 2023-07-17 15:07:26.622
15.0, -133.77519056501276, 187500.0, 187500.0, 187500.0, 187500.0, 187500.0, 187500.0, 187500.0, 0.036000000000000004, -0.02, 1.002, 192.0, 0.0, 0.0, 0.0, 0.0, 0.0, 0.0, 0.0, 0.0, 0.0, 1.6895992466231785E9, 0.0, 2023-07-17 15:07:26.623
16.0, -114.41857986671685, 187500.0, 187500.0, 187500.0, 187500.0, 187500.0, 187500.0, 187500.0, 0.036000000000000004, -0.02, 1.002, 192.0, 0.0, 0.0, 0.0, 0.0, 0.0, 0.0, 0.0, 0.0, 0.0, 1.6895992466243098E9, 0.0, 2023-07-17 15:07:26.624
17.0, -103.86855648381191, 187500.0, 187500.0, 187500.0, 187500.0, 187500.0, 187500.0, 187500.0, 0.036000000000000004, -0.02, 1.002, 192.0, 0.0, 0.0, 0.0, 0.0, 0.0, 0.0, 0.0, 0.0, 0.0, 1.6895992466243808E9, 0.0, 2023-07-17 15:07:26.624
18.0, -115.91614674522242, 187500.0, 187500.0, 187500.0, 187500.0, 187500.0, 187500.0, 187500.0, 0.03, -0.022, 1.008, 192.0, 0.0, 240.0, 255.0, 80.0, 31.0, 128.0, 0.0, 0.0, 0.0, 1.6895992466245158E9, 0.0, 2023-07-17 15:07:26.624
19.0, -132.5458446199709, 187500.0, 187500.0, 187500.0, 187500.0, 187500.0, 187500.0, 187500.0, 0.03, -0.022, 1.008, 192.0, 0.0, 0.0, 0.0, 0.0, 0.0, 0.0, 0.0, 0.0, 0.0, 1.689599246624612E9, 0.0, 2023-07-17 15:07:26.624
20.0, -133.2163969536301, 187500.0, 187500.0, 187500.0, 187500.0, 187500.0, 187500.0, 187500.0, 0.03, -0.022, 1.008, 192.0, 0.0, 0.0, 0.0, 0.0, 0.0, 0.0, 0.0, 0.0, 0.0, 1.6895992466246603E9, 0.0, 2023-07-17 15:07:26.624
21.0, -115.62557406730343, 187500.0, 187500.0, 187500.0, 187500.0, 187500.0, 187500.0, 187500.0, 0.03, -0.022, 1.008, 192.0, 0.0, 0.0, 0.0, 0.0, 0.0, 0.0, 0.0, 0.0, 0.0, 1.6895992466247015E9, 0.0, 2023-07-17 15:07:26.624
22.0, -104.51675707301582, 187500.0, 187500.0, 187500.0, 187500.0, 187500.0, 187500.0, 187500.0, 0.03, -0.022, 1.008, 192.0, 0.0, 0.0, 0.0, 0.0, 0.0, 0.0, 0.0, 0.0, 0.0, 1.6895992466247468E9, 0.0, 2023-07-17 15:07:26.624
23.0, -115.67027755621405, 187500.0, 187500.0, 187500.0, 187500.0, 187500.0, 187500.0, 187500.0, 0.03, -0.022, 1.008, 192.0, 0.0, 0.0, 0.0, 0.0, 0.0, 0.0, 0.0, 0.0, 0.0, 1.6895992466248071E9, 0.0, 2023-07-17 15:07:26.624
24.0, -133.12698997580887, 187500.0, 187500.0, 187500.0, 187500.0, 187500.0, 187500.0, 187500.0, 0.03, -0.022, 1.008, 192.0, 0.0, 0.0, 0.0, 0.0, 0.0, 0.0, 0.0, 0.0, 0.0, 1.6895992466248565E9, 0.0, 2023-07-17 15:07:26.624
25.0, -133.2611004425407, 187500.0, 187500.0, 187500.0, 187500.0, 187500.0, 187500.0, 187500.0, 0.03, -0.022, 1.008, 192.0, 0.0, 0.0, 0.0, 0.0, 0.0, 0.0, 0.0, 0.0, 0.0, 1.6895992466249063E9, 0.0, 2023-07-17 15:07:26.624
26.0, -115.26794615601852, 187500.0, 187500.0, 187500.0, 187500.0, 187500.0, 187500.0, 187500.0, 0.03, -0.022, 1.008, 192.0, 0.0, 0.0, 0.0, 0.0, 0.0, 0.0, 0.0, 0.0, 0.0, 1.689599246624957E9, 0.0, 2023-07-17 15:07:26.624
27.0, -105.09790242885381, 187500.0, 187500.0, 187500.0, 187500.0, 187500.0, 187500.0, 187500.0, 0.034, -0.016, 1.002, 192.0, 1.0, 16.0, 255.0, 128.0, 31.0, 80.0, 0.0, 0.0, 0.0, 1.689599246625008E9, 0.0, 2023-07-17 15:07:26.625
28.0, -115.8714432563118, 187500.0, 187500.0, 187500.0, 187500.0, 187500.0, 187500.0, 187500.0, 0.034, -0.016, 1.002, 192.0, 0.0, 0.0, 0.0, 0.0, 0.0, 0.0, 0.0, 0.0, 0.0, 1.6895992466250632E9, 0.0, 2023-07-17 15:07:26.625
29.0, -133.10463823135356, 187500.0, 187500.0, 187500.0, 187500.0, 187500.0, 187500.0, 187500.0, 0.034, -0.016, 1.002, 192.0, 0.0, 0.0, 0.0, 0.0, 0.0, 0.0, 0.0, 0.0, 0.0, 1.6895992466251135E9, 0.0, 2023-07-17 15:07:26.625
30.0, -133.28345218699602, 187500.0, 187500.0, 187500.0, 187500.0, 187500.0, 187500.0, 187500.0, 0.034, -0.016, 1.002, 192.0, 0.0, 0.0, 0.0, 0.0, 0.0, 0.0, 0.0, 0.0, 0.0, 1.6895992466251638E9, 0.0, 2023-07-17 15:07:26.625
31.0, -115.80438802294589, 187500.0, 187500.0, 187500.0, 187500.0, 187500.0, 187500.0, 187500.0, 0.034, -0.016, 1.002, 192.0, 0.0, 0.0, 0.0, 0.0, 0.0, 0.0, 0.0, 0.0, 0.0, 1.689599246625418E9, 0.0, 2023-07-17 15:07:26.625
32.0, -104.82968149539012, 187500.0, 187500.0, 187500.0, 187500.0, 187500.0, 187500.0, 187500.0, 0.034, -0.016, 1.002, 192.0, 0.0, 0.0, 0.0, 0.0, 0.0, 0.0, 0.0, 0.0, 0.0, 1.689599246625471E9, 0.0, 2023-07-17 15:07:26.625
33.0, -115.35735313383975, 187500.0, 187500.0, 187500.0, 187500.0, 187500.0, 187500.0, 187500.0, 0.034, -0.016, 1.002, 192.0, 0.0, 0.0, 0.0, 0.0, 0.0, 0.0, 0.0, 0.0, 0.0, 1.6895992466255236E9, 0.0, 2023-07-17 15:07:26.625
34.0, -133.03758299798764, 187500.0, 187500.0, 187500.0, 187500.0, 187500.0, 187500.0, 187500.0, 0.034, -0.016, 1.002, 192.0, 0.0, 0.0, 0.0, 0.0, 0.0, 0.0, 0.0, 0.0, 0.0, 1.6895992466255748E9, 0.0, 2023-07-17 15:07:26.625
35.0, -133.97635626511052, 187500.0, 187500.0, 187500.0, 187500.0, 187500.0, 187500.0, 187500.0, 0.034, -0.016, 1.002, 192.0, 0.0, 0.0, 0.0, 0.0, 0.0, 0.0, 0.0, 0.0, 0.0, 1.689599246625626E9, 0.0, 2023-07-17 15:07:26.625
36.0, -115.80438802294589, 187500.0, 187500.0, 187500.0, 187500.0, 187500.0, 187500.0, 187500.0, 0.034, -0.016, 1.002, 192.0, 0.0, 0.0, 0.0, 0.0, 0.0, 0.0, 0.0, 0.0, 0.0, 1.6895992466256764E9, 0.0, 2023-07-17 15:07:26.625
37.0, -104.7626262620242, 187500.0, 187500.0, 187500.0, 187500.0, 187500.0, 187500.0, 187500.0, 0.034, -0.014, 1.002, 192.0, 1.0, 16.0, 255.0, 144.0, 31.0, 80.0, 0.0, 0.0, 0.0, 1.6895992466257265E9, 0.0, 2023-07-17 15:07:26.625
38.0, -114.97737347809954, 187500.0, 187500.0, 187500.0, 187500.0, 187500.0, 187500.0, 187500.0, 0.034, -0.014, 1.002, 192.0, 0.0, 0.0, 0.0, 0.0, 0.0, 0.0, 0.0, 0.0, 0.0, 1.689599246625779E9, 0.0, 2023-07-17 15:07:26.625
39.0, -131.89764403076697, 187500.0, 187500.0, 187500.0, 187500.0, 187500.0, 187500.0, 187500.0, 0.034, -0.014, 1.002, 192.0, 0.0, 0.0, 0.0, 0.0, 0.0, 0.0, 0.0, 0.0, 0.0, 1.6895992466258297E9, 0.0, 2023-07-17 15:07:26.625
40.0, -133.01523125353233, 187500.0, 187500.0, 187500.0, 187500.0, 187500.0, 187500.0, 187500.0, 0.034, -0.014, 1.002, 192.0, 0.0, 0.0, 0.0, 0.0, 0.0, 0.0, 0.0, 0.0, 0.0, 1.68959924662588E9, 0.0, 2023-07-17 15:07:26.625
41.0, -115.75968453403527, 187500.0, 187500.0, 187500.0, 187500.0, 187500.0, 187500.0, 187500.0, 0.034, -0.014, 1.002, 192.0, 0.0, 0.0, 0.0, 0.0, 0.0, 0.0, 0.0, 0.0, 0.0, 1.6895992466259303E9, 0.0, 2023-07-17 15:07:26.625
42.0, -104.7626262620242, 187500.0, 187500.0, 187500.0, 187500.0, 187500.0, 187500.0, 187500.0, 0.034, -0.014, 1.002, 192.0, 0.0, 0.0, 0.0, 0.0, 0.0, 0.0, 0.0, 0.0, 0.0, 1.689599246625981E9, 0.0, 2023-07-17 15:07:26.625
43.0, -115.35735313383975, 187500.0, 187500.0, 187500.0, 187500.0, 187500.0, 187500.0, 187500.0, 0.034, -0.014, 1.002, 192.0, 0.0, 0.0, 0.0, 0.0, 0.0, 0.0, 0.0, 0.0, 0.0, 1.6895992466260307E9, 0.0, 2023-07-17 15:07:26.626
44.0, -133.12698997580887, 187500.0, 187500.0, 187500.0, 187500.0, 187500.0, 187500.0, 187500.0, 0.034, -0.014, 1.002, 192.0, 0.0, 0.0, 0.0, 0.0, 0.0, 0.0, 0.0, 0.0, 0.0, 1.6895992466260903E9, 0.0, 2023-07-17 15:07:26.626
45.0, -133.864597542834, 187500.0, 187500.0, 187500.0, 187500.0, 187500.0, 187500.0, 187500.0, 0.034, -0.014, 1.002, 192.0, 0.0, 0.0, 0.0, 0.0, 0.0, 0.0, 0.0, 0.0, 0.0, 1.68959924662614E9, 0.0, 2023-07-17 15:07:26.626
46.0, -116.49729210106041, 187500.0, 187500.0, 187500.0, 187500.0, 187500.0, 187500.0, 187500.0, 0.034, -0.014, 1.002, 192.0, 0.0, 0.0, 0.0, 0.0, 0.0, 0.0, 0.0, 0.0, 0.0, 1.689599246626191E9, 0.0, 2023-07-17 15:07:26.626
47.0, -104.91908847321135, 187500.0, 187500.0, 187500.0, 187500.0, 187500.0, 187500.0, 187500.0, 0.034, -0.012, 0.998, 192.0, 1.0, 16.0, 255.0, 160.0, 31.0, 48.0, 0.0, 0.0, 0.0, 1.6895992466263053E9, 0.0, 2023-07-17 15:07:26.626
48.0, -115.5361670894822, 187500.0, 187500.0, 187500.0, 187500.0, 187500.0, 187500.0, 187500.0, 0.034, -0.012, 0.998, 192.0, 0.0, 0.0, 0.0, 0.0, 0.0, 0.0, 0.0, 0.0, 0.0, 1.6895992466263597E9, 0.0, 2023-07-17 15:07:26.626
49.0, -132.8587690423452, 187500.0, 187500.0, 187500.0, 187500.0, 187500.0, 187500.0, 187500.0, 0.034, -0.012, 0.998, 192.0, 0.0, 0.0, 0.0, 0.0, 0.0, 0.0, 0.0, 0.0, 0.0, 1.6895992466264112E9, 0.0, 2023-07-17 15:07:26.626
50.0, -133.68578358719154, 187500.0, 187500.0, 187500.0, 187500.0, 187500.0, 187500.0, 187500.0, 0.034, -0.012, 0.998, 192.0, 0.0, 0.0, 0.0, 0.0, 0.0, 0.0, 0.0, 0.0, 0.0, 1.6895992466264625E9, 0.0, 2023-07-17 15:07:26.626
51.0, -116.1396641897755, 187500.0, 187500.0, 187500.0, 187500.0, 187500.0, 187500.0, 187500.0, 0.034, -0.012, 0.998, 192.0, 0.0, 0.0, 0.0, 0.0, 0.0, 0.0, 0.0, 0.0, 0.0, 1.6895992466265128E9, 0.0, 2023-07-17 15:07:26.626
52.0, -105.00849545103259, 187500.0, 187500.0, 187500.0, 187500.0, 187500.0, 187500.0, 187500.0, 0.034, -0.012, 0.998, 192.0, 0.0, 0.0, 0.0, 0.0, 0.0, 0.0, 0.0, 0.0, 0.0, 1.6895992466265633E9, 0.0, 2023-07-17 15:07:26.626
53.0, -114.8879665002783, 187500.0, 187500.0, 187500.0, 187500.0, 187500.0, 187500.0, 187500.0, 0.034, -0.012, 0.998, 192.0, 0.0, 0.0, 0.0, 0.0, 0.0, 0.0, 0.0, 0.0, 0.0, 1.6895992466266124E9, 0.0, 2023-07-17 15:07:26.626
54.0, -133.01523125353233, 187500.0, 187500.0, 187500.0, 187500.0, 187500.0, 187500.0, 187500.0, 0.034, -0.012, 0.998, 192.0, 0.0, 0.0, 0.0, 0.0, 0.0, 0.0, 0.0, 0.0, 0.0, 1.6895992466266625E9, 0.0, 2023-07-17 15:07:26.626
55.0, -134.11046673184237, 187500.0, 187500.0, 187500.0, 187500.0, 187500.0, 187500.0, 187500.0, 0.034, -0.012, 0.998, 192.0, 0.0, 0.0, 0.0, 0.0, 0.0, 0.0, 0.0, 0.0, 0.0, 1.6895992466267128E9, 0.0, 2023-07-17 15:07:26.626
56.0, -116.74316129006878, 187500.0, 187500.0, 187500.0, 187500.0, 187500.0, 187500.0, 187500.0, 0.034, -0.012, 0.998, 192.0, 0.0, 0.0, 0.0, 0.0, 0.0, 0.0, 0.0, 0.0, 0.0, 1.6895992466267636E9, 0.0, 2023-07-17 15:07:26.626
57.0, -105.63434429578118, 187500.0, 187500.0, 187500.0, 187500.0, 187500.0, 187500.0, 187500.0, 0.034, -0.016, 1.004, 192.0, 1.0, 16.0, 255.0, 128.0, 31.0, 96.0, 0.0, 0.0, 0.0, 1.6895992466268165E9, 0.0, 2023-07-17 15:07:26.626
58.0, -114.70915254463584, 187500.0, 187500.0, 187500.0, 187500.0, 187500.0, 187500.0, 187500.0, 0.034, -0.016, 1.004, 192.0, 0.0, 0.0, 0.0, 0.0, 0.0, 0.0, 0.0, 0.0, 0.0, 1.689599246626872E9, 0.0, 2023-07-17 15:07:26.626
59.0, -132.6128998533368, 187500.0, 187500.0, 187500.0, 187500.0, 187500.0, 187500.0, 187500.0, 0.034, -0.016, 1.004, 192.0, 0.0, 0.0, 0.0, 0.0, 0.0, 0.0, 0.0, 0.0, 0.0, 1.6895992466269238E9, 0.0, 2023-07-17 15:07:26.626
60.0, -133.73048707610215, 187500.0, 187500.0, 187500.0, 187500.0, 187500.0, 187500.0, 187500.0, 0.034, -0.016, 1.004, 192.0, 0.0, 0.0, 0.0, 0.0, 0.0, 0.0, 0.0, 0.0, 0.0, 1.689599246626976E9, 0.0, 2023-07-17 15:07:26.626
61.0, -116.36318163432857, 187500.0, 187500.0, 187500.0, 187500.0, 187500.0, 187500.0, 187500.0, 0.034, -0.016, 1.004, 192.0, 0.0, 0.0, 0.0, 0.0, 0.0, 0.0, 0.0, 0.0, 0.0, 1.6895992466270275E9, 0.0, 2023-07-17 15:07:26.627
62.0, -105.20966115113035, 187500.0, 187500.0, 187500.0, 187500.0, 187500.0, 187500.0, 187500.0, 0.034, -0.016, 1.004, 192.0, 0.0, 0.0, 0.0, 0.0, 0.0, 0.0, 0.0, 0.0, 0.0, 1.6895992466272597E9, 0.0, 2023-07-17 15:07:26.627
63.0, -115.26794615601852, 187500.0, 187500.0, 187500.0, 187500.0, 187500.0, 187500.0, 187500.0, 0.034, -0.016, 1.004, 192.0, 0.0, 0.0, 0.0, 0.0, 0.0, 0.0, 0.0, 0.0, 0.0, 1.6895992466273212E9, 0.0, 2023-07-17 15:07:26.627
64.0, -132.5234928755156, 187500.0, 187500.0, 187500.0, 187500.0, 187500.0, 187500.0, 187500.0, 0.034, -0.016, 1.004, 192.0, 0.0, 0.0, 0.0, 0.0, 0.0, 0.0, 0.0, 0.0, 0.0, 1.68959924662737E9, 0.0, 2023-07-17 15:07:26.627
65.0, -134.35633592085077, 187500.0, 187500.0, 187500.0, 187500.0, 187500.0, 187500.0, 187500.0, 0.034, -0.016, 1.004, 192.0, 0.0, 0.0, 0.0, 0.0, 0.0, 0.0, 0.0, 0.0, 0.0, 1.6895992466274595E9, 0.0, 2023-07-17 15:07:26.627
66.0, -116.58669907888164, 187500.0, 187500.0, 187500.0, 187500.0, 187500.0, 187500.0, 187500.0, 0.034, -0.016, 1.004, 192.0, 0.0, 0.0, 0.0, 0.0, 0.0, 0.0, 0.0, 0.0, 0.0, 1.6895992466275373E9, 0.0, 2023-07-17 15:07:26.627
67.0, -105.47788208459403, 187500.0, 187500.0, 187500.0, 187500.0, 187500.0, 187500.0, 187500.0, 0.03, -0.012, 1.002, 192.0, 0.0, 240.0, 255.0, 160.0, 31.0, 80.0, 0.0, 0.0, 0.0, 1.689599246627582E9, 0.0, 2023-07-17 15:07:26.627
68.0, -115.31264964492914, 187500.0, 187500.0, 187500.0, 187500.0, 187500.0, 187500.0, 187500.0, 0.03, -0.012, 1.002, 192.0, 0.0, 0.0, 0.0, 0.0, 0.0, 0.0, 0.0, 0.0, 0.0, 1.6895992466276283E9, 0.0, 2023-07-17 15:07:26.627
69.0, -132.63525159779212, 187500.0, 187500.0, 187500.0, 187500.0, 187500.0, 187500.0, 187500.0, 0.03, -0.012, 1.002, 192.0, 0.0, 0.0, 0.0, 0.0, 0.0, 0.0, 0.0, 0.0, 0.0, 1.689599246627687E9, 0.0, 2023-07-17 15:07:26.627
70.0, -133.81989405392338, 187500.0, 187500.0, 187500.0, 187500.0, 187500.0, 187500.0, 187500.0, 0.03, -0.012, 1.002, 192.0, 0.0, 0.0, 0.0, 0.0, 0.0, 0.0, 0.0, 0.0, 0.0, 1.689599246627731E9, 0.0, 2023-07-17 15:07:26.627
71.0, -116.4749403566051, 187500.0, 187500.0, 187500.0, 187500.0, 187500.0, 187500.0, 187500.0, 0.03, -0.012, 1.002, 192.0, 0.0, 0.0, 0.0, 0.0, 0.0, 0.0, 0.0, 0.0, 0.0, 1.6895992466277728E9, 0.0, 2023-07-17 15:07:26.627
72.0, -104.13677741727561, 187500.0, 187500.0, 187500.0, 187500.0, 187500.0, 187500.0, 187500.0, 0.03, -0.012, 1.002, 192.0, 0.0, 0.0, 0.0, 0.0, 0.0, 0.0, 0.0, 0.0, 0.0, 1.6895992466278155E9, 0.0, 2023-07-17 15:07:26.627
73.0, -114.53033858899339, 187500.0, 187500.0, 187500.0, 187500.0, 187500.0, 187500.0, 187500.0, 0.03, -0.012, 1.002, 192.0, 0.0, 0.0, 0.0, 0.0, 0.0, 0.0, 0.0, 0.0, 0.0, 1.6895992466278572E9, 0.0, 2023-07-17 15:07:26.627
74.0, -132.74701032006865, 187500.0, 187500.0, 187500.0, 187500.0, 187500.0, 187500.0, 187500.0, 0.03, -0.012, 1.002, 192.0, 0.0, 0.0, 0.0, 0.0, 0.0, 0.0, 0.0, 0.0, 0.0, 1.6895992466278992E9, 0.0, 2023-07-17 15:07:26.627
75.0, -134.06576324293175, 187500.0, 187500.0, 187500.0, 187500.0, 187500.0, 187500.0, 187500.0, 0.03, -0.012, 1.002, 192.0, 0.0, 0.0, 0.0, 0.0, 0.0, 0.0, 0.0, 0.0, 0.0, 1.68959924662794E9, 0.0, 2023-07-17 15:07:26.627
76.0, -116.07260895640958, 187500.0, 187500.0, 187500.0, 187500.0, 187500.0, 187500.0, 187500.0, 0.03, -0.012, 1.002, 192.0, 0.0, 0.0, 0.0, 0.0, 0.0, 0.0, 0.0, 0.0, 0.0, 1.6895992466279829E9, 0.0, 2023-07-17 15:07:26.627
77.0, -104.33794311737337, 187500.0, 187500.0, 187500.0, 187500.0, 187500.0, 187500.0, 187500.0, 0.032, -0.014, 1.0, 192.0, 1.0, 0.0, 255.0, 144.0, 31.0, 64.0, 0.0, 0.0, 0.0, 1.6895992466280885E9, 0.0, 2023-07-17 15:07:26.628
78.0, -114.97737347809954, 187500.0, 187500.0, 187500.0, 187500.0, 187500.0, 187500.0, 187500.0, 0.032, -0.014, 1.0, 192.0, 0.0, 0.0, 0.0, 0.0, 0.0, 0.0, 0.0, 0.0, 0.0, 1.6895992466281374E9, 0.0, 2023-07-17 15:07:26.628
79.0, -132.23292019759657, 187500.0, 187500.0, 187500.0, 187500.0, 187500.0, 187500.0, 187500.0, 0.032, -0.014, 1.0, 192.0, 0.0, 0.0, 0.0, 0.0, 0.0, 0.0, 0.0, 0.0, 0.0, 1.6895992466281831E9, 0.0, 2023-07-17 15:07:26.628
80.0, -133.64108009828092, 187500.0, 187500.0, 187500.0, 187500.0, 187500.0, 187500.0, 187500.0, 0.032, -0.014, 1.0, 192.0, 0.0, 0.0, 0.0, 0.0, 0.0, 0.0, 0.0, 0.0, 0.0, 1.6895992466282296E9, 0.0, 2023-07-17 15:07:26.628
81.0, -116.58669907888164, 187500.0, 187500.0, 187500.0, 187500.0, 187500.0, 187500.0, 187500.0, 0.032, -0.014, 1.0, 192.0, 0.0, 0.0, 0.0, 0.0, 0.0, 0.0, 0.0, 0.0, 0.0, 1.6895992466283903E9, 0.0, 2023-07-17 15:07:26.628
82.0, -104.7626262620242, 187500.0, 187500.0, 187500.0, 187500.0, 187500.0, 187500.0, 187500.0, 0.032, -0.014, 1.0, 192.0, 0.0, 0.0, 0.0, 0.0, 0.0, 0.0, 0.0, 0.0, 0.0, 1.6895992466285276E9, 0.0, 2023-07-17 15:07:26.628
83.0, -114.8879665002783, 187500.0, 187500.0, 187500.0, 187500.0, 187500.0, 187500.0, 187500.0, 0.032, -0.014, 1.0, 192.0, 0.0, 0.0, 0.0, 0.0, 0.0, 0.0, 0.0, 0.0, 0.0, 1.689599246628664E9, 0.0, 2023-07-17 15:07:26.628
84.0, -132.67995508670273, 187500.0, 187500.0, 187500.0, 187500.0, 187500.0, 187500.0, 187500.0, 0.032, -0.014, 1.0, 192.0, 0.0, 0.0, 0.0, 0.0, 0.0, 0.0, 0.0, 0.0, 0.0, 1.6895992466287224E9, 0.0, 2023-07-17 15:07:26.628
85.0, -133.8869492872893, 187500.0, 187500.0, 187500.0, 187500.0, 187500.0, 187500.0, 187500.0, 0.032, -0.014, 1.0, 192.0, 0.0, 0.0, 0.0, 0.0, 0.0, 0.0, 0.0, 0.0, 0.0, 1.6895992466287737E9, 0.0, 2023-07-17 15:07:26.628
86.0, -116.22907116759673, 187500.0, 187500.0, 187500.0, 187500.0, 187500.0, 187500.0, 187500.0, 0.032, -0.014, 1.0, 192.0, 0.0, 0.0, 0.0, 0.0, 0.0, 0.0, 0.0, 0.0, 0.0, 1.6895992466288252E9, 0.0, 2023-07-17 15:07:26.628
87.0, -104.74027451756889, 187500.0, 187500.0, 187500.0, 187500.0, 187500.0, 187500.0, 187500.0, 0.028, -0.01, 1.006, 192.0, 0.0, 224.0, 255.0, 176.0, 31.0, 112.0, 0.0, 0.0, 0.0, 1.6895992466288855E9, 0.0, 2023-07-17 15:07:26.628
88.0, -115.02207696701015, 187500.0, 187500.0, 187500.0, 187500.0, 187500.0, 187500.0, 187500.0, 0.028, -0.01, 1.006, 192.0, 0.0, 0.0, 0.0, 0.0, 0.0, 0.0, 0.0, 0.0, 0.0, 1.6895992466289392E9, 0.0, 2023-07-17 15:07:26.628
89.0, -132.5234928755156, 187500.0, 187500.0, 187500.0, 187500.0, 187500.0, 187500.0, 187500.0, 0.028, -0.01, 1.006, 192.0, 0.0, 0.0, 0.0, 0.0, 0.0, 0.0, 0.0, 0.0, 0.0, 1.689599246628991E9, 0.0, 2023-07-17 15:07:26.628
90.0, -133.73048707610215, 187500.0, 187500.0, 187500.0, 187500.0, 187500.0, 187500.0, 187500.0, 0.028, -0.01, 1.006, 192.0, 0.0, 0.0, 0.0, 0.0, 0.0, 0.0, 0.0, 0.0, 0.0, 1.689599246629042E9, 0.0, 2023-07-17 15:07:26.629
91.0, -117.03373396798779, 187500.0, 187500.0, 187500.0, 187500.0, 187500.0, 187500.0, 187500.0, 0.028, -0.01, 1.006, 192.0, 0.0, 0.0, 0.0, 0.0, 0.0, 0.0, 0.0, 0.0, 0.0, 1.689599246629092E9, 0.0, 2023-07-17 15:07:26.629
92.0, -105.3884751067728, 187500.0, 187500.0, 187500.0, 187500.0, 187500.0, 187500.0, 187500.0, 0.028, -0.01, 1.006, 192.0, 0.0, 0.0, 0.0, 0.0, 0.0, 0.0, 0.0, 0.0, 0.0, 1.6895992466292093E9, 0.0, 2023-07-17 15:07:26.629
93.0, -114.84326301136768, 187500.0, 187500.0, 187500.0, 187500.0, 187500.0, 187500.0, 187500.0, 0.028, -0.01, 1.006, 192.0, 0.0, 0.0, 0.0, 0.0, 0.0, 0.0, 0.0, 0.0, 0.0, 1.6895992466292813E9, 0.0, 2023-07-17 15:07:26.629
94.0, -132.50114113106028, 187500.0, 187500.0, 187500.0, 187500.0, 187500.0, 187500.0, 187500.0, 0.028, -0.01, 1.006, 192.0, 0.0, 0.0, 0.0, 0.0, 0.0, 0.0, 0.0, 0.0, 0.0, 1.6895992466293323E9, 0.0, 2023-07-17 15:07:26.629
95.0, -134.15517022075298, 187500.0, 187500.0, 187500.0, 187500.0, 187500.0, 187500.0, 187500.0, 0.028, -0.01, 1.006, 192.0, 0.0, 0.0, 0.0, 0.0, 0.0, 0.0, 0.0, 0.0, 0.0, 1.689599246629383E9, 0.0, 2023-07-17 15:07:26.629
96.0, -116.92197524571124, 187500.0, 187500.0, 187500.0, 187500.0, 187500.0, 187500.0, 187500.0, 0.028, -0.01, 1.006, 192.0, 0.0, 0.0, 0.0, 0.0, 0.0, 0.0, 0.0, 0.0, 0.0, 1.689599246629434E9, 0.0, 2023-07-17 15:07:26.629
97.0, -104.58381230638174, 187500.0, 187500.0, 187500.0, 187500.0, 187500.0, 187500.0, 187500.0, 0.024, -0.012, 1.006, 192.0, 0.0, 192.0, 255.0, 160.0, 31.0, 112.0, 0.0, 0.0, 0.0, 1.6895992466294854E9, 0.0, 2023-07-17 15:07:26.629
98.0, -114.37387637780624, 187500.0, 187500.0, 187500.0, 187500.0, 187500.0, 187500.0, 187500.0, 0.024, -0.012, 1.006, 192.0, 0.0, 0.0, 0.0, 0.0, 0.0, 0.0, 0.0, 0.0, 0.0, 1.6895992466295383E9, 0.0, 2023-07-17 15:07:26.629
99.0, -132.23292019759657, 187500.0, 187500.0, 187500.0, 187500.0, 187500.0, 187500.0, 187500.0, 0.024, -0.012, 1.006, 192.0, 0.0, 0.0, 0.0, 0.0, 0.0, 0.0, 0.0, 0.0, 0.0, 1.689599246629589E9, 0.0, 2023-07-17 15:07:26.629
100.0, -133.9093010317446, 187500.0, 187500.0, 187500.0, 187500.0, 187500.0, 187500.0, 187500.0, 0.024, -0.012, 1.006, 192.0, 0.0, 0.0, 0.0, 0.0, 0.0, 0.0, 0.0, 0.0, 0.0, 1.689599246629639E9, 0.0, 2023-07-17 15:07:26.629
101.0, -117.14549269026432, 187500.0, 187500.0, 187500.0, 187500.0, 187500.0, 187500.0, 187500.0, 0.024, -0.012, 1.006, 192.0, 0.0, 0.0, 0.0, 0.0, 0.0, 0.0, 0.0, 0.0, 0.0, 1.6895992466296892E9, 0.0, 2023-07-17 15:07:26.629
102.0, -105.16495766221973, 187500.0, 187500.0, 187500.0, 187500.0, 187500.0, 187500.0, 187500.0, 0.024, -0.012, 1.006, 192.0, 0.0, 0.0, 0.0, 0.0, 0.0, 0.0, 0.0, 0.0, 0.0, 1.6895992466297393E9, 0.0, 2023-07-17 15:07:26.629
103.0, -114.73150428909115, 187500.0, 187500.0, 187500.0, 187500.0, 187500.0, 187500.0, 187500.0, 0.024, -0.012, 1.006, 192.0, 0.0, 0.0, 0.0, 0.0, 0.0, 0.0, 0.0, 0.0, 0.0, 1.68959924662979E9, 0.0, 2023-07-17 15:07:26.629
104.0, -132.07645798640942, 187500.0, 187500.0, 187500.0, 187500.0, 187500.0, 187500.0, 187500.0, 0.024, -0.012, 1.006, 192.0, 0.0, 0.0, 0.0, 0.0, 0.0, 0.0, 0.0, 0.0, 0.0, 1.68959924662984E9, 0.0, 2023-07-17 15:07:26.629
105.0, -133.8869492872893, 187500.0, 187500.0, 187500.0, 187500.0, 187500.0, 187500.0, 187500.0, 0.024, -0.012, 1.006, 192.0, 0.0, 0.0, 0.0, 0.0, 0.0, 0.0, 0.0, 0.0, 0.0, 1.6895992466298902E9, 0.0, 2023-07-17 15:07:26.629
106.0, -116.65375431224756, 187500.0, 187500.0, 187500.0, 187500.0, 187500.0, 187500.0, 187500.0, 0.024, -0.012, 1.006, 192.0, 0.0, 0.0, 0.0, 0.0, 0.0, 0.0, 0.0, 0.0, 0.0, 1.6895992466299388E9, 0.0, 2023-07-17 15:07:26.629
107.0, -105.76845476251302, 187500.0, 187500.0, 187500.0, 187500.0, 187500.0, 187500.0, 187500.0, 0.028, -0.018000000000000002, 1.01, 192.0, 0.0, 224.0, 255.0, 112.0, 31.0, 144.0, 0.0, 0.0, 0.0, 1.689599246629989E9, 0.0, 2023-07-17 15:07:26.629
108.0, -114.68680080018054, 187500.0, 187500.0, 187500.0, 187500.0, 187500.0, 187500.0, 187500.0, 0.028, -0.018000000000000002, 1.01, 192.0, 0.0, 0.0, 0.0, 0.0, 0.0, 0.0, 0.0, 0.0, 0.0, 1.6895992466319375E9, 0.0, 2023-07-17 15:07:26.631
109.0, -131.56236786393737, 187500.0, 187500.0, 187500.0, 187500.0, 187500.0, 187500.0, 187500.0, 0.028, -0.018000000000000002, 1.01, 192.0, 0.0, 0.0, 0.0, 0.0, 0.0, 0.0, 0.0, 0.0, 0.0, 1.689599246631992E9, 0.0, 2023-07-17 15:07:26.631
110.0, -133.5963766093703, 187500.0, 187500.0, 187500.0, 187500.0, 187500.0, 187500.0, 187500.0, 0.028, -0.018000000000000002, 1.01, 192.0, 0.0, 0.0, 0.0, 0.0, 0.0, 0.0, 0.0, 0.0, 0.0, 1.6895992466320395E9, 0.0, 2023-07-17 15:07:26.632
111.0, -116.76551303452409, 187500.0, 187500.0, 187500.0, 187500.0, 187500.0, 187500.0, 187500.0, 0.028, -0.018000000000000002, 1.01, 192.0, 0.0, 0.0, 0.0, 0.0, 0.0, 0.0, 0.0, 0.0, 0.0, 1.6895992466320891E9, 0.0, 2023-07-17 15:07:26.632
112.0, -105.18730940667504, 187500.0, 187500.0, 187500.0, 187500.0, 187500.0, 187500.0, 187500.0, 0.028, -0.018000000000000002, 1.01, 192.0, 0.0, 0.0, 0.0, 0.0, 0.0, 0.0, 0.0, 0.0, 0.0, 1.6895992466321423E9, 0.0, 2023-07-17 15:07:26.632
113.0, -114.46328335562747, 187500.0, 187500.0, 187500.0, 187500.0, 187500.0, 187500.0, 187500.0, 0.028, -0.018000000000000002, 1.01, 192.0, 0.0, 0.0, 0.0, 0.0, 0.0, 0.0, 0.0, 0.0, 0.0, 1.6895992466321933E9, 0.0, 2023-07-17 15:07:26.632
114.0, -131.85294054185636, 187500.0, 187500.0, 187500.0, 187500.0, 187500.0, 187500.0, 187500.0, 0.028, -0.018000000000000002, 1.01, 192.0, 0.0, 0.0, 0.0, 0.0, 0.0, 0.0, 0.0, 0.0, 0.0, 1.6895992466322508E9, 0.0, 2023-07-17 15:07:26.632
115.0, -133.95400452065522, 187500.0, 187500.0, 187500.0, 187500.0, 187500.0, 187500.0, 187500.0, 0.028, -0.018000000000000002, 1.01, 192.0, 0.0, 0.0, 0.0, 0.0, 0.0, 0.0, 0.0, 0.0, 0.0, 1.6895992466323028E9, 0.0, 2023-07-17 15:07:26.632
116.0, -116.8102165234347, 187500.0, 187500.0, 187500.0, 187500.0, 187500.0, 187500.0, 187500.0, 0.028, -0.018000000000000002, 1.01, 192.0, 0.0, 0.0, 0.0, 0.0, 0.0, 0.0, 0.0, 0.0, 0.0, 1.6895992466323535E9, 0.0, 2023-07-17 15:07:26.632
117.0, -105.32141987340688, 187500.0, 187500.0, 187500.0, 187500.0, 187500.0, 187500.0, 187500.0, 0.028, -0.014, 1.004, 192.0, 0.0, 224.0, 255.0, 144.0, 31.0, 96.0, 0.0, 0.0, 0.0, 1.6895992466324043E9, 0.0, 2023-07-17 15:07:26.632
118.0, -114.84326301136768, 187500.0, 187500.0, 187500.0, 187500.0, 187500.0, 187500.0, 187500.0, 0.028, -0.014, 1.004, 192.0, 0.0, 0.0, 0.0, 0.0, 0.0, 0.0, 0.0, 0.0, 0.0, 1.6895992466324582E9, 0.0, 2023-07-17 15:07:26.632
119.0, -132.63525159779212, 187500.0, 187500.0, 187500.0, 187500.0, 187500.0, 187500.0, 187500.0, 0.028, -0.014, 1.004, 192.0, 0.0, 0.0, 0.0, 0.0, 0.0, 0.0, 0.0, 0.0, 0.0, 1.689599246632508E9, 0.0, 2023-07-17 15:07:26.632
120.0, -134.31163243194013, 187500.0, 187500.0, 187500.0, 187500.0, 187500.0, 187500.0, 187500.0, 0.028, -0.014, 1.004, 192.0, 0.0, 0.0, 0.0, 0.0, 0.0, 0.0, 0.0, 0.0, 0.0, 1.6895992466325598E9, 0.0, 2023-07-17 15:07:26.632
121.0, -117.16784443471963, 187500.0, 187500.0, 187500.0, 187500.0, 187500.0, 187500.0, 187500.0, 0.028, -0.014, 1.004, 192.0, 0.0, 0.0, 0.0, 0.0, 0.0, 0.0, 0.0, 0.0, 0.0, 1.6895992470990772E9, 0.0, 2023-07-17 15:07:27.099
122.0, -105.52258557350464, 187500.0, 187500.0, 187500.0, 187500.0, 187500.0, 187500.0, 187500.0, 0.028, -0.014, 1.004, 192.0, 0.0, 0.0, 0.0, 0.0, 0.0, 0.0, 0.0, 0.0, 0.0, 1.6895992470991962E9, 0.0, 2023-07-17 15:07:27.099
123.0, -114.9103182447336, 187500.0, 187500.0, 187500.0, 187500.0, 187500.0, 187500.0, 187500.0, 0.028, -0.014, 1.004, 192.0, 0.0, 0.0, 0.0, 0.0, 0.0, 0.0, 0.0, 0.0, 0.0, 1.6895992471022117E9, 0.0, 2023-07-17 15:07:27.102
124.0, -132.12116147532004, 187500.0, 187500.0, 187500.0, 187500.0, 187500.0, 187500.0, 187500.0, 0.028, -0.014, 1.004, 192.0, 0.0, 0.0, 0.0, 0.0, 0.0, 0.0, 0.0, 0.0, 0.0, 1.689599247102305E9, 0.0, 2023-07-17 15:07:27.102
125.0, -134.02105975402114, 187500.0, 187500.0, 187500.0, 187500.0, 187500.0, 187500.0, 187500.0, 0.028, -0.014, 1.004, 192.0, 0.0, 0.0, 0.0, 0.0, 0.0, 0.0, 0.0, 0.0, 0.0, 1.6895992471023679E9, 0.0, 2023-07-17 15:07:27.102
126.0, -117.25725141254085, 187500.0, 187500.0, 187500.0, 187500.0, 187500.0, 187500.0, 187500.0, 0.028, -0.014, 1.004, 192.0, 0.0, 0.0, 0.0, 0.0, 0.0, 0.0, 0.0, 0.0, 0.0, 1.6895992471024244E9, 0.0, 2023-07-17 15:07:27.102
127.0, -105.29906812895157, 187500.0, 187500.0, 187500.0, 187500.0, 187500.0, 187500.0, 187500.0, 0.03, -0.014, 1.004, 192.0, 0.0, 240.0, 255.0, 144.0, 31.0, 96.0, 0.0, 0.0, 0.0, 1.689599247102487E9, 0.0, 2023-07-17 15:07:27.102
128.0, -114.70915254463584, 187500.0, 187500.0, 187500.0, 187500.0, 187500.0, 187500.0, 187500.0, 0.03, -0.014, 1.004, 192.0, 0.0, 0.0, 0.0, 0.0, 0.0, 0.0, 0.0, 0.0, 0.0, 1.689599247102548E9, 0.0, 2023-07-17 15:07:27.102
129.0, -132.0094027530435, 187500.0, 187500.0, 187500.0, 187500.0, 187500.0, 187500.0, 187500.0, 0.03, -0.014, 1.004, 192.0, 0.0, 0.0, 0.0, 0.0, 0.0, 0.0, 0.0, 0.0, 0.0, 1.689599247102604E9, 0.0, 2023-07-17 15:07:27.102
130.0, -134.31163243194013, 187500.0, 187500.0, 187500.0, 187500.0, 187500.0, 187500.0, 187500.0, 0.03, -0.014, 1.004, 192.0, 0.0, 0.0, 0.0, 0.0, 0.0, 0.0, 0.0, 0.0, 0.0, 1.6895992471026616E9, 0.0, 2023-07-17 15:07:27.102
131.0, -117.3913618792727, 187500.0, 187500.0, 187500.0, 187500.0, 187500.0, 187500.0, 187500.0, 0.03, -0.014, 1.004, 192.0, 0.0, 0.0, 0.0, 0.0, 0.0, 0.0, 0.0, 0.0, 0.0, 1.689599247102719E9, 0.0, 2023-07-17 15:07:27.102
132.0, -105.23201289558565, 187500.0, 187500.0, 187500.0, 187500.0, 187500.0, 187500.0, 187500.0, 0.03, -0.014, 1.004, 192.0, 0.0, 0.0, 0.0, 0.0, 0.0, 0.0, 0.0, 0.0, 0.0, 1.6895992471027737E9, 0.0, 2023-07-17 15:07:27.102
133.0, -114.2621176555297, 187500.0, 187500.0, 187500.0, 187500.0, 187500.0, 187500.0, 187500.0, 0.03, -0.014, 1.004, 192.0, 0.0, 0.0, 0.0, 0.0, 0.0, 0.0, 0.0, 0.0, 0.0, 1.689599247102829E9, 0.0, 2023-07-17 15:07:27.102
134.0, -131.49531263057145, 187500.0, 187500.0, 187500.0, 187500.0, 187500.0, 187500.0, 187500.0, 0.03, -0.014, 1.004, 192.0, 0.0, 0.0, 0.0, 0.0, 0.0, 0.0, 0.0, 0.0, 0.0, 1.6895992471028807E9, 0.0, 2023-07-17 15:07:27.102
135.0, -133.5963766093703, 187500.0, 187500.0, 187500.0, 187500.0, 187500.0, 187500.0, 187500.0, 0.03, -0.014, 1.004, 192.0, 0.0, 0.0, 0.0, 0.0, 0.0, 0.0, 0.0, 0.0, 0.0, 1.6895992471029809E9, 0.0, 2023-07-17 15:07:27.102
136.0, -117.413713623728, 187500.0, 187500.0, 187500.0, 187500.0, 187500.0, 187500.0, 187500.0, 0.03, -0.014, 1.004, 192.0, 0.0, 0.0, 0.0, 0.0, 0.0, 0.0, 0.0, 0.0, 0.0, 1.6895992471030357E9, 0.0, 2023-07-17 15:07:27.103
137.0, -104.98614370657727, 187500.0, 187500.0, 187500.0, 187500.0, 187500.0, 187500.0, 187500.0, 0.036000000000000004, -0.018000000000000002, 1.002, 192.0, 1.0, 32.0, 255.0, 112.0, 31.0, 80.0, 0.0, 0.0, 0.0, 1.68959924710309E9, 0.0, 2023-07-17 15:07:27.103
138.0, -114.37387637780624, 187500.0, 187500.0, 187500.0, 187500.0, 187500.0, 187500.0, 187500.0, 0.036000000000000004, -0.018000000000000002, 1.002, 192.0, 0.0, 0.0, 0.0, 0.0, 0.0, 0.0, 0.0, 0.0, 0.0, 1.6895992471032777E9, 0.0, 2023-07-17 15:07:27.103
139.0, -131.78588530849044, 187500.0, 187500.0, 187500.0, 187500.0, 187500.0, 187500.0, 187500.0, 0.036000000000000004, -0.018000000000000002, 1.002, 192.0, 0.0, 0.0, 0.0, 0.0, 0.0, 0.0, 0.0, 0.0, 0.0, 1.6895992471033647E9, 0.0, 2023-07-17 15:07:27.103
140.0, -134.57985336540384, 187500.0, 187500.0, 187500.0, 187500.0, 187500.0, 187500.0, 187500.0, 0.036000000000000004, -0.018000000000000002, 1.002, 192.0, 0.0, 0.0, 0.0, 0.0, 0.0, 0.0, 0.0, 0.0, 0.0, 1.6895992471034124E9, 0.0, 2023-07-17 15:07:27.103
141.0, -117.21254792363024, 187500.0, 187500.0, 187500.0, 187500.0, 187500.0, 187500.0, 187500.0, 0.036000000000000004, -0.018000000000000002, 1.002, 192.0, 0.0, 0.0, 0.0, 0.0, 0.0, 0.0, 0.0, 0.0, 0.0, 1.6895992471034575E9, 0.0, 2023-07-17 15:07:27.103
142.0, -104.67321928420297, 187500.0, 187500.0, 187500.0, 187500.0, 187500.0, 187500.0, 187500.0, 0.036000000000000004, -0.018000000000000002, 1.002, 192.0, 0.0, 0.0, 0.0, 0.0, 0.0, 0.0, 0.0, 0.0, 0.0, 1.689599247103505E9, 0.0, 2023-07-17 15:07:27.103
143.0, -114.30682114444032, 187500.0, 187500.0, 187500.0, 187500.0, 187500.0, 187500.0, 187500.0, 0.036000000000000004, -0.018000000000000002, 1.002, 192.0, 0.0, 0.0, 0.0, 0.0, 0.0, 0.0, 0.0, 0.0, 0.0, 1.689599247103551E9, 0.0, 2023-07-17 15:07:27.103
144.0, -132.18821670868596, 187500.0, 187500.0, 187500.0, 187500.0, 187500.0, 187500.0, 187500.0, 0.036000000000000004, -0.018000000000000002, 1.002, 192.0, 0.0, 0.0, 0.0, 0.0, 0.0, 0.0, 0.0, 0.0, 0.0, 1.689599247103596E9, 0.0, 2023-07-17 15:07:27.103
145.0, -134.08811498738706, 187500.0, 187500.0, 187500.0, 187500.0, 187500.0, 187500.0, 187500.0, 0.036000000000000004, -0.018000000000000002, 1.002, 192.0, 0.0, 0.0, 0.0, 0.0, 0.0, 0.0, 0.0, 0.0, 0.0, 1.689599247103641E9, 0.0, 2023-07-17 15:07:27.103
146.0, -117.7489897905576, 187500.0, 187500.0, 187500.0, 187500.0, 187500.0, 187500.0, 187500.0, 0.036000000000000004, -0.018000000000000002, 1.002, 192.0, 0.0, 0.0, 0.0, 0.0, 0.0, 0.0, 0.0, 0.0, 0.0, 1.689599247103688E9, 0.0, 2023-07-17 15:07:27.103
147.0, -105.52258557350464, 187500.0, 187500.0, 187500.0, 187500.0, 187500.0, 187500.0, 187500.0, 0.034, -0.016, 1.006, 192.0, 1.0, 16.0, 255.0, 128.0, 31.0, 112.0, 0.0, 0.0, 0.0, 1.6895992471037347E9, 0.0, 2023-07-17 15:07:27.103
148.0, -114.59739382235931, 187500.0, 187500.0, 187500.0, 187500.0, 187500.0, 187500.0, 187500.0, 0.034, -0.016, 1.006, 192.0, 0.0, 0.0, 0.0, 0.0, 0.0, 0.0, 0.0, 0.0, 0.0, 1.689599247103783E9, 0.0, 2023-07-17 15:07:27.103
149.0, -131.85294054185636, 187500.0, 187500.0, 187500.0, 187500.0, 187500.0, 187500.0, 187500.0, 0.034, -0.016, 1.006, 192.0, 0.0, 0.0, 0.0, 0.0, 0.0, 0.0, 0.0, 0.0, 0.0, 1.6895992471038282E9, 0.0, 2023-07-17 15:07:27.103
150.0, -134.4680946431273, 187500.0, 187500.0, 187500.0, 187500.0, 187500.0, 187500.0, 187500.0, 0.034, -0.016, 1.006, 192.0, 0.0, 0.0, 0.0, 0.0, 0.0, 0.0, 0.0, 0.0, 0.0, 1.6895992471038747E9, 0.0, 2023-07-17 15:07:27.103
151.0, -117.52547234600453, 187500.0, 187500.0, 187500.0, 187500.0, 187500.0, 187500.0, 187500.0, 0.034, -0.016, 1.006, 192.0, 0.0, 0.0, 0.0, 0.0, 0.0, 0.0, 0.0, 0.0, 0.0, 1.6895992471039207E9, 0.0, 2023-07-17 15:07:27.103
152.0, -104.91908847321135, 187500.0, 187500.0, 187500.0, 187500.0, 187500.0, 187500.0, 187500.0, 0.034, -0.016, 1.006, 192.0, 0.0, 0.0, 0.0, 0.0, 0.0, 0.0, 0.0, 0.0, 0.0, 1.6895992471039653E9, 0.0, 2023-07-17 15:07:27.103
153.0, -114.41857986671685, 187500.0, 187500.0, 187500.0, 187500.0, 187500.0, 187500.0, 187500.0, 0.034, -0.016, 1.006, 192.0, 0.0, 0.0, 0.0, 0.0, 0.0, 0.0, 0.0, 0.0, 0.0, 1.6895992471040668E9, 0.0, 2023-07-17 15:07:27.104
154.0, -131.89764403076697, 187500.0, 187500.0, 187500.0, 187500.0, 187500.0, 187500.0, 187500.0, 0.034, -0.016, 1.006, 192.0, 0.0, 0.0, 0.0, 0.0, 0.0, 0.0, 0.0, 0.0, 0.0, 1.6895992471041148E9, 0.0, 2023-07-17 15:07:27.104
155.0, -133.84224579837868, 187500.0, 187500.0, 187500.0, 187500.0, 187500.0, 187500.0, 187500.0, 0.034, -0.016, 1.006, 192.0, 0.0, 0.0, 0.0, 0.0, 0.0, 0.0, 0.0, 0.0, 0.0, 1.6895992471041687E9, 0.0, 2023-07-17 15:07:27.104
156.0, -117.32430664590677, 187500.0, 187500.0, 187500.0, 187500.0, 187500.0, 187500.0, 187500.0, 0.034, -0.016, 1.006, 192.0, 0.0, 0.0, 0.0, 0.0, 0.0, 0.0, 0.0, 0.0, 0.0, 1.6895992471042247E9, 0.0, 2023-07-17 15:07:27.104
157.0, -104.85203323984543, 187500.0, 187500.0, 187500.0, 187500.0, 187500.0, 187500.0, 187500.0, 0.028, -0.016, 1.006, 192.0, 0.0, 224.0, 255.0, 128.0, 31.0, 112.0, 0.0, 0.0, 0.0, 1.6895992471042707E9, 0.0, 2023-07-17 15:07:27.104
158.0, -113.52451008850457, 187500.0, 187500.0, 187500.0, 187500.0, 187500.0, 187500.0, 187500.0, 0.028, -0.016, 1.006, 192.0, 0.0, 0.0, 0.0, 0.0, 0.0, 0.0, 0.0, 0.0, 0.0, 1.6895992471043212E9, 0.0, 2023-07-17 15:07:27.104
159.0, -131.6741265862139, 187500.0, 187500.0, 187500.0, 187500.0, 187500.0, 187500.0, 187500.0, 0.028, -0.016, 1.006, 192.0, 0.0, 0.0, 0.0, 0.0, 0.0, 0.0, 0.0, 0.0, 0.0, 1.689599247104365E9, 0.0, 2023-07-17 15:07:27.104
160.0, -134.08811498738706, 187500.0, 187500.0, 187500.0, 187500.0, 187500.0, 187500.0, 187500.0, 0.028, -0.016, 1.006, 192.0, 0.0, 0.0, 0.0, 0.0, 0.0, 0.0, 0.0, 0.0, 0.0, 1.689599247104411E9, 0.0, 2023-07-17 15:07:27.104
161.0, -118.06191421293191, 187500.0, 187500.0, 187500.0, 187500.0, 187500.0, 187500.0, 187500.0, 0.028, -0.016, 1.006, 192.0, 0.0, 0.0, 0.0, 0.0, 0.0, 0.0, 0.0, 0.0, 0.0, 1.6895992471044574E9, 0.0, 2023-07-17 15:07:27.104
162.0, -105.25436464004096, 187500.0, 187500.0, 187500.0, 187500.0, 187500.0, 187500.0, 187500.0, 0.028, -0.016, 1.006, 192.0, 0.0, 0.0, 0.0, 0.0, 0.0, 0.0, 0.0, 0.0, 0.0, 1.689599247104504E9, 0.0, 2023-07-17 15:07:27.104
163.0, -114.50798684453808, 187500.0, 187500.0, 187500.0, 187500.0, 187500.0, 187500.0, 187500.0, 0.028, -0.016, 1.006, 192.0, 0.0, 0.0, 0.0, 0.0, 0.0, 0.0, 0.0, 0.0, 0.0, 1.6895992471045513E9, 0.0, 2023-07-17 15:07:27.104
164.0, -131.9870510085882, 187500.0, 187500.0, 187500.0, 187500.0, 187500.0, 187500.0, 187500.0, 0.028, -0.016, 1.006, 192.0, 0.0, 0.0, 0.0, 0.0, 0.0, 0.0, 0.0, 0.0, 0.0, 1.6895992471046019E9, 0.0, 2023-07-17 15:07:27.104
165.0, -134.53514987649322, 187500.0, 187500.0, 187500.0, 187500.0, 187500.0, 187500.0, 187500.0, 0.028, -0.016, 1.006, 192.0, 0.0, 0.0, 0.0, 0.0, 0.0, 0.0, 0.0, 0.0, 0.0, 1.689599247104657E9, 0.0, 2023-07-17 15:07:27.104
166.0, -117.92780374620007, 187500.0, 187500.0, 187500.0, 187500.0, 187500.0, 187500.0, 187500.0, 0.028, -0.016, 1.006, 192.0, 0.0, 0.0, 0.0, 0.0, 0.0, 0.0, 0.0, 0.0, 0.0, 1.689599247104706E9, 0.0, 2023-07-17 15:07:27.104
167.0, -105.14260591776443, 187500.0, 187500.0, 187500.0, 187500.0, 187500.0, 187500.0, 187500.0, 0.026000000000000002, -0.018000000000000002, 1.01, 192.0, 0.0, 208.0, 255.0, 112.0, 31.0, 144.0, 0.0, 0.0, 0.0, 1.6895992471047556E9, 0.0, 2023-07-17 15:07:27.104
168.0, -113.85978625533417, 187500.0, 187500.0, 187500.0, 187500.0, 187500.0, 187500.0, 187500.0, 0.026000000000000002, -0.018000000000000002, 1.01, 192.0, 0.0, 0.0, 0.0, 0.0, 0.0, 0.0, 0.0, 0.0, 0.0, 1.6895992471048076E9, 0.0, 2023-07-17 15:07:27.104
169.0, -131.6294230973033, 187500.0, 187500.0, 187500.0, 187500.0, 187500.0, 187500.0, 187500.0, 0.026000000000000002, -0.018000000000000002, 1.01, 192.0, 0.0, 0.0, 0.0, 0.0, 0.0, 0.0, 0.0, 0.0, 0.0, 1.6895992471049116E9, 0.0, 2023-07-17 15:07:27.104
170.0, -134.89277778777813, 187500.0, 187500.0, 187500.0, 187500.0, 187500.0, 187500.0, 187500.0, 0.026000000000000002, -0.018000000000000002, 1.01, 192.0, 0.0, 0.0, 0.0, 0.0, 0.0, 0.0, 0.0, 0.0, 0.0, 1.6895992471049604E9, 0.0, 2023-07-17 15:07:27.104
171.0, -117.83839676837883, 187500.0, 187500.0, 187500.0, 187500.0, 187500.0, 187500.0, 187500.0, 0.026000000000000002, -0.018000000000000002, 1.01, 192.0, 0.0, 0.0, 0.0, 0.0, 0.0, 0.0, 0.0, 0.0, 0.0, 1.6895992471050093E9, 0.0, 2023-07-17 15:07:27.105
172.0, -104.85203323984543, 187500.0, 187500.0, 187500.0, 187500.0, 187500.0, 187500.0, 187500.0, 0.026000000000000002, -0.018000000000000002, 1.01, 192.0, 0.0, 0.0, 0.0, 0.0, 0.0, 0.0, 0.0, 0.0, 0.0, 1.6895992471050587E9, 0.0, 2023-07-17 15:07:27.105
173.0, -113.77037927751294, 187500.0, 187500.0, 187500.0, 187500.0, 187500.0, 187500.0, 187500.0, 0.026000000000000002, -0.018000000000000002, 1.01, 192.0, 0.0, 0.0, 0.0, 0.0, 0.0, 0.0, 0.0, 0.0, 0.0, 1.6895992471051075E9, 0.0, 2023-07-17 15:07:27.105
174.0, -131.54001611948206, 187500.0, 187500.0, 187500.0, 187500.0, 187500.0, 187500.0, 187500.0, 0.026000000000000002, -0.018000000000000002, 1.01, 192.0, 0.0, 0.0, 0.0, 0.0, 0.0, 0.0, 0.0, 0.0, 0.0, 1.6895992471051705E9, 0.0, 2023-07-17 15:07:27.105
175.0, -134.4680946431273, 187500.0, 187500.0, 187500.0, 187500.0, 187500.0, 187500.0, 187500.0, 0.026000000000000002, -0.018000000000000002, 1.01, 192.0, 0.0, 0.0, 0.0, 0.0, 0.0, 0.0, 0.0, 0.0, 0.0, 1.6895992471052182E9, 0.0, 2023-07-17 15:07:27.105
176.0, -118.12896944629783, 187500.0, 187500.0, 187500.0, 187500.0, 187500.0, 187500.0, 187500.0, 0.026000000000000002, -0.018000000000000002, 1.01, 192.0, 0.0, 0.0, 0.0, 0.0, 0.0, 0.0, 0.0, 0.0, 0.0, 1.689599247105264E9, 0.0, 2023-07-17 15:07:27.105
177.0, -105.81315825142363, 187500.0, 187500.0, 187500.0, 187500.0, 187500.0, 187500.0, 187500.0, 0.028, -0.022, 1.012, 192.0, 0.0, 224.0, 255.0, 80.0, 31.0, 160.0, 0.0, 0.0, 0.0, 1.6895992471053092E9, 0.0, 2023-07-17 15:07:27.105
178.0, -114.2621176555297, 187500.0, 187500.0, 187500.0, 187500.0, 187500.0, 187500.0, 187500.0, 0.028, -0.022, 1.012, 192.0, 0.0, 0.0, 0.0, 0.0, 0.0, 0.0, 0.0, 0.0, 0.0, 1.6895992471053555E9, 0.0, 2023-07-17 15:07:27.105
179.0, -132.0317544974988, 187500.0, 187500.0, 187500.0, 187500.0, 187500.0, 187500.0, 187500.0, 0.028, -0.022, 1.012, 192.0, 0.0, 0.0, 0.0, 0.0, 0.0, 0.0, 0.0, 0.0, 0.0, 1.6895992471054013E9, 0.0, 2023-07-17 15:07:27.105
180.0, -134.66926034322506, 187500.0, 187500.0, 187500.0, 187500.0, 187500.0, 187500.0, 187500.0, 0.028, -0.022, 1.012, 192.0, 0.0, 0.0, 0.0, 0.0, 0.0, 0.0, 0.0, 0.0, 0.0, 1.689599247105448E9, 0.0, 2023-07-17 15:07:27.105
181.0, -118.21837642411906, 187500.0, 187500.0, 187500.0, 187500.0, 187500.0, 187500.0, 187500.0, 0.028, -0.022, 1.012, 192.0, 0.0, 0.0, 0.0, 0.0, 0.0, 0.0, 0.0, 0.0, 0.0, 1.6895992471055453E9, 0.0, 2023-07-17 15:07:27.105
182.0, -106.26019314052978, 187500.0, 187500.0, 187500.0, 187500.0, 187500.0, 187500.0, 187500.0, 0.028, -0.022, 1.012, 192.0, 0.0, 0.0, 0.0, 0.0, 0.0, 0.0, 0.0, 0.0, 0.0, 1.6895992471055963E9, 0.0, 2023-07-17 15:07:27.105
183.0, -113.74802753305764, 187500.0, 187500.0, 187500.0, 187500.0, 187500.0, 187500.0, 187500.0, 0.028, -0.022, 1.012, 192.0, 0.0, 0.0, 0.0, 0.0, 0.0, 0.0, 0.0, 0.0, 0.0, 1.6895992471056411E9, 0.0, 2023-07-17 15:07:27.105
184.0, -131.91999577522228, 187500.0, 187500.0, 187500.0, 187500.0, 187500.0, 187500.0, 187500.0, 0.028, -0.022, 1.012, 192.0, 0.0, 0.0, 0.0, 0.0, 0.0, 0.0, 0.0, 0.0, 0.0, 1.6895992471057737E9, 0.0, 2023-07-17 15:07:27.105
185.0, -134.60220510985914, 187500.0, 187500.0, 187500.0, 187500.0, 187500.0, 187500.0, 187500.0, 0.028, -0.022, 1.012, 192.0, 0.0, 0.0, 0.0, 0.0, 0.0, 0.0, 0.0, 0.0, 0.0, 1.6895992471058185E9, 0.0, 2023-07-17 15:07:27.105
186.0, -118.50894910203804, 187500.0, 187500.0, 187500.0, 187500.0, 187500.0, 187500.0, 187500.0, 0.028, -0.022, 1.012, 192.0, 0.0, 0.0, 0.0, 0.0, 0.0, 0.0, 0.0, 0.0, 0.0, 1.689599247105863E9, 0.0, 2023-07-17 15:07:27.105
187.0, -105.3661233623175, 187500.0, 187500.0, 187500.0, 187500.0, 187500.0, 187500.0, 187500.0, 0.032, -0.018000000000000002, 1.012, 192.0, 1.0, 0.0, 255.0, 112.0, 31.0, 160.0, 0.0, 0.0, 0.0, 1.6895992471059096E9, 0.0, 2023-07-17 15:07:27.105
188.0, -113.54686183295988, 187500.0, 187500.0, 187500.0, 187500.0, 187500.0, 187500.0, 187500.0, 0.032, -0.018000000000000002, 1.012, 192.0, 0.0, 0.0, 0.0, 0.0, 0.0, 0.0, 0.0, 0.0, 0.0, 1.689599247105958E9, 0.0, 2023-07-17 15:07:27.105
189.0, -131.2941469304737, 187500.0, 187500.0, 187500.0, 187500.0, 187500.0, 187500.0, 187500.0, 0.032, -0.018000000000000002, 1.012, 192.0, 0.0, 0.0, 0.0, 0.0, 0.0, 0.0, 0.0, 0.0, 0.0, 1.6895992471060035E9, 0.0, 2023-07-17 15:07:27.106
190.0, -134.62455685431445, 187500.0, 187500.0, 187500.0, 187500.0, 187500.0, 187500.0, 187500.0, 0.032, -0.018000000000000002, 1.012, 192.0, 0.0, 0.0, 0.0, 0.0, 0.0, 0.0, 0.0, 0.0, 0.0, 1.6895992471060493E9, 0.0, 2023-07-17 15:07:27.106
191.0, -118.15132119075314, 187500.0, 187500.0, 187500.0, 187500.0, 187500.0, 187500.0, 187500.0, 0.032, -0.018000000000000002, 1.012, 192.0, 0.0, 0.0, 0.0, 0.0, 0.0, 0.0, 0.0, 0.0, 0.0, 1.6895992471060946E9, 0.0, 2023-07-17 15:07:27.106
192.0, -105.20966115113035, 187500.0, 187500.0, 187500.0, 187500.0, 187500.0, 187500.0, 187500.0, 0.032, -0.018000000000000002, 1.012, 192.0, 0.0, 0.0, 0.0, 0.0, 0.0, 0.0, 0.0, 0.0, 0.0, 1.689599247106142E9, 0.0, 2023-07-17 15:07:27.106
193.0, -113.43510311068334, 187500.0, 187500.0, 187500.0, 187500.0, 187500.0, 187500.0, 187500.0, 0.032, -0.018000000000000002, 1.012, 192.0, 0.0, 0.0, 0.0, 0.0, 0.0, 0.0, 0.0, 0.0, 0.0, 1.6895992471061969E9, 0.0, 2023-07-17 15:07:27.106
194.0, -131.13768471928654, 187500.0, 187500.0, 187500.0, 187500.0, 187500.0, 187500.0, 187500.0, 0.032, -0.018000000000000002, 1.012, 192.0, 0.0, 0.0, 0.0, 0.0, 0.0, 0.0, 0.0, 0.0, 0.0, 1.68959924710624E9, 0.0, 2023-07-17 15:07:27.106
195.0, -134.35633592085077, 187500.0, 187500.0, 187500.0, 187500.0, 187500.0, 187500.0, 187500.0, 0.032, -0.018000000000000002, 1.012, 192.0, 0.0, 0.0, 0.0, 0.0, 0.0, 0.0, 0.0, 0.0, 0.0, 1.6895992471062827E9, 0.0, 2023-07-17 15:07:27.106
196.0, -117.63723106828107, 187500.0, 187500.0, 187500.0, 187500.0, 187500.0, 187500.0, 187500.0, 0.036000000000000004, -0.018000000000000002, 1.006, 192.0, 1.0, 32.0, 255.0, 112.0, 31.0, 112.0, 0.0, 0.0, 0.0, 1.6895992471063275E9, 0.0, 2023-07-17 15:07:27.106
197.0, -105.58964080687056, 187500.0, 187500.0, 187500.0, 187500.0, 187500.0, 187500.0, 187500.0, 0.036000000000000004, -0.018000000000000002, 1.006, 192.0, 0.0, 0.0, 0.0, 0.0, 0.0, 0.0, 0.0, 0.0, 0.0, 1.6895992471063771E9, 0.0, 2023-07-17 15:07:27.106
198.0, -113.79273102196825, 187500.0, 187500.0, 187500.0, 187500.0, 187500.0, 187500.0, 187500.0, 0.036000000000000004, -0.018000000000000002, 1.006, 192.0, 0.0, 0.0, 0.0, 0.0, 0.0, 0.0, 0.0, 0.0, 0.0, 1.6895992471064312E9, 0.0, 2023-07-17 15:07:27.106
199.0, -132.0094027530435, 187500.0, 187500.0, 187500.0, 187500.0, 187500.0, 187500.0, 187500.0, 0.036000000000000004, -0.018000000000000002, 1.006, 192.0, 0.0, 0.0, 0.0, 0.0, 0.0, 0.0, 0.0, 0.0, 0.0, 1.6895992471065595E9, 0.0, 2023-07-17 15:07:27.106
200.0, -134.71396383213568, 187500.0, 187500.0, 187500.0, 187500.0, 187500.0, 187500.0, 187500.0, 0.036000000000000004, -0.018000000000000002, 1.006, 192.0, 0.0, 0.0, 0.0, 0.0, 0.0, 0.0, 0.0, 0.0, 0.0, 1.6895992471066208E9, 0.0, 2023-07-17 15:07:27.106
201.0, -118.12896944629783, 187500.0, 187500.0, 187500.0, 187500.0, 187500.0, 187500.0, 187500.0, 0.036000000000000004, -0.018000000000000002, 1.006, 192.0, 0.0, 0.0, 0.0, 0.0, 0.0, 0.0, 0.0, 0.0, 0.0, 1.6895992471066885E9, 0.0, 2023-07-17 15:07:27.106
202.0, -104.85203323984543, 187500.0, 187500.0, 187500.0, 187500.0, 187500.0, 187500.0, 187500.0, 0.036000000000000004, -0.018000000000000002, 1.006, 192.0, 0.0, 0.0, 0.0, 0.0, 0.0, 0.0, 0.0, 0.0, 0.0, 1.689599247106743E9, 0.0, 2023-07-17 15:07:27.106
203.0, -113.01041996603252, 187500.0, 187500.0, 187500.0, 187500.0, 187500.0, 187500.0, 187500.0, 0.036000000000000004, -0.018000000000000002, 1.006, 192.0, 0.0, 0.0, 0.0, 0.0, 0.0, 0.0, 0.0, 0.0, 0.0, 1.6895992471067924E9, 0.0, 2023-07-17 15:07:27.106
204.0, -131.24944344156307, 187500.0, 187500.0, 187500.0, 187500.0, 187500.0, 187500.0, 187500.0, 0.036000000000000004, -0.018000000000000002, 1.006, 192.0, 0.0, 0.0, 0.0, 0.0, 0.0, 0.0, 0.0, 0.0, 0.0, 1.6895992471068444E9, 0.0, 2023-07-17 15:07:27.106
205.0, -135.1386469767865, 187500.0, 187500.0, 187500.0, 187500.0, 187500.0, 187500.0, 187500.0, 0.036000000000000004, -0.018000000000000002, 1.006, 192.0, 0.0, 0.0, 0.0, 0.0, 0.0, 0.0, 0.0, 0.0, 0.0, 1.6895992471069074E9, 0.0, 2023-07-17 15:07:27.106
206.0, -118.3748386353062, 187500.0, 187500.0, 187500.0, 187500.0, 187500.0, 187500.0, 187500.0, 0.038, -0.022, 1.008, 192.0, 1.0, 48.0, 255.0, 80.0, 31.0, 128.0, 0.0, 0.0, 0.0, 1.6895992471069715E9, 0.0, 2023-07-17 15:07:27.106
207.0, -105.54493731795995, 187500.0, 187500.0, 187500.0, 187500.0, 187500.0, 187500.0, 187500.0, 0.038, -0.022, 1.008, 192.0, 0.0, 0.0, 0.0, 0.0, 0.0, 0.0, 0.0, 0.0, 0.0, 1.689599247107024E9, 0.0, 2023-07-17 15:07:27.107
208.0, -113.07747519939844, 187500.0, 187500.0, 187500.0, 187500.0, 187500.0, 187500.0, 187500.0, 0.038, -0.022, 1.008, 192.0, 0.0, 0.0, 0.0, 0.0, 0.0, 0.0, 0.0, 0.0, 0.0, 1.6895992471070745E9, 0.0, 2023-07-17 15:07:27.107
209.0, -131.07062948592062, 187500.0, 187500.0, 187500.0, 187500.0, 187500.0, 187500.0, 187500.0, 0.038, -0.022, 1.008, 192.0, 0.0, 0.0, 0.0, 0.0, 0.0, 0.0, 0.0, 0.0, 0.0, 1.689599247107125E9, 0.0, 2023-07-17 15:07:27.107
210.0, -134.60220510985914, 187500.0, 187500.0, 187500.0, 187500.0, 187500.0, 187500.0, 187500.0, 0.038, -0.022, 1.008, 192.0, 0.0, 0.0, 0.0, 0.0, 0.0, 0.0, 0.0, 0.0, 0.0, 1.689599247107203E9, 0.0, 2023-07-17 15:07:27.107
211.0, -118.62070782431458, 187500.0, 187500.0, 187500.0, 187500.0, 187500.0, 187500.0, 187500.0, 0.038, -0.022, 1.008, 192.0, 0.0, 0.0, 0.0, 0.0, 0.0, 0.0, 0.0, 0.0, 0.0, 1.6895992471072583E9, 0.0, 2023-07-17 15:07:27.107
212.0, -105.96962046261078, 187500.0, 187500.0, 187500.0, 187500.0, 187500.0, 187500.0, 187500.0, 0.038, -0.022, 1.008, 192.0, 0.0, 0.0, 0.0, 0.0, 0.0, 0.0, 0.0, 0.0, 0.0, 1.689599247107309E9, 0.0, 2023-07-17 15:07:27.107
213.0, -112.49632984356045, 187500.0, 187500.0, 187500.0, 187500.0, 187500.0, 187500.0, 187500.0, 0.038, -0.022, 1.008, 192.0, 0.0, 0.0, 0.0, 0.0, 0.0, 0.0, 0.0, 0.0, 0.0, 1.6895992471074798E9, 0.0, 2023-07-17 15:07:27.107
214.0, -130.22126319661893, 187500.0, 187500.0, 187500.0, 187500.0, 187500.0, 187500.0, 187500.0, 0.038, -0.022, 1.008, 192.0, 0.0, 0.0, 0.0, 0.0, 0.0, 0.0, 0.0, 0.0, 0.0, 1.6895992471075804E9, 0.0, 2023-07-17 15:07:27.107
215.0, -134.98218476559936, 187500.0, 187500.0, 187500.0, 187500.0, 187500.0, 187500.0, 187500.0, 0.038, -0.022, 1.008, 192.0, 0.0, 0.0, 0.0, 0.0, 0.0, 0.0, 0.0, 0.0, 0.0, 1.6895992471076264E9, 0.0, 2023-07-17 15:07:27.107
216.0, -119.00068748005481, 187500.0, 187500.0, 187500.0, 187500.0, 187500.0, 187500.0, 187500.0, 0.038, -0.018000000000000002, 1.006, 192.0, 1.0, 48.0, 255.0, 112.0, 31.0, 112.0, 0.0, 0.0, 0.0, 1.689599247107672E9, 0.0, 2023-07-17 15:07:27.107
217.0, -105.00849545103259, 187500.0, 187500.0, 187500.0, 187500.0, 187500.0, 187500.0, 187500.0, 0.038, -0.018000000000000002, 1.006, 192.0, 0.0, 0.0, 0.0, 0.0, 0.0, 0.0, 0.0, 0.0, 0.0, 1.6895992471077216E9, 0.0, 2023-07-17 15:07:27.107
218.0, -113.03277171048782, 187500.0, 187500.0, 187500.0, 187500.0, 187500.0, 187500.0, 187500.0, 0.038, -0.018000000000000002, 1.006, 192.0, 0.0, 0.0, 0.0, 0.0, 0.0, 0.0, 0.0, 0.0, 0.0, 1.6895992471077752E9, 0.0, 2023-07-17 15:07:27.107
219.0, -131.18238820819715, 187500.0, 187500.0, 187500.0, 187500.0, 187500.0, 187500.0, 187500.0, 0.038, -0.018000000000000002, 1.006, 192.0, 0.0, 0.0, 0.0, 0.0, 0.0, 0.0, 0.0, 0.0, 0.0, 1.6895992471078277E9, 0.0, 2023-07-17 15:07:27.107
220.0, -134.98218476559936, 187500.0, 187500.0, 187500.0, 187500.0, 187500.0, 187500.0, 187500.0, 0.038, -0.018000000000000002, 1.006, 192.0, 0.0, 0.0, 0.0, 0.0, 0.0, 0.0, 0.0, 0.0, 0.0, 1.6895992471078756E9, 0.0, 2023-07-17 15:07:27.107
221.0, -119.71594330262462, 187500.0, 187500.0, 187500.0, 187500.0, 187500.0, 187500.0, 187500.0, 0.038, -0.018000000000000002, 1.006, 192.0, 0.0, 0.0, 0.0, 0.0, 0.0, 0.0, 0.0, 0.0, 0.0, 1.6895992471079228E9, 0.0, 2023-07-17 15:07:27.107
222.0, -106.08137918488733, 187500.0, 187500.0, 187500.0, 187500.0, 187500.0, 187500.0, 187500.0, 0.038, -0.018000000000000002, 1.006, 192.0, 0.0, 0.0, 0.0, 0.0, 0.0, 0.0, 0.0, 0.0, 0.0, 1.6895992471079695E9, 0.0, 2023-07-17 15:07:27.107
223.0, -113.41275136622804, 187500.0, 187500.0, 187500.0, 187500.0, 187500.0, 187500.0, 187500.0, 0.038, -0.018000000000000002, 1.006, 192.0, 0.0, 0.0, 0.0, 0.0, 0.0, 0.0, 0.0, 0.0, 0.0, 1.689599247108016E9, 0.0, 2023-07-17 15:07:27.108
224.0, -131.11533297483123, 187500.0, 187500.0, 187500.0, 187500.0, 187500.0, 187500.0, 187500.0, 0.038, -0.018000000000000002, 1.006, 192.0, 0.0, 0.0, 0.0, 0.0, 0.0, 0.0, 0.0, 0.0, 0.0, 1.6895992471080627E9, 0.0, 2023-07-17 15:07:27.108
225.0, -134.8257225544122, 187500.0, 187500.0, 187500.0, 187500.0, 187500.0, 187500.0, 187500.0, 0.038, -0.018000000000000002, 1.006, 192.0, 0.0, 0.0, 0.0, 0.0, 0.0, 0.0, 0.0, 0.0, 0.0, 1.6895992471081083E9, 0.0, 2023-07-17 15:07:27.108
226.0, -119.2912601579738, 187500.0, 187500.0, 187500.0, 187500.0, 187500.0, 187500.0, 187500.0, 0.034, -0.014, 1.006, 192.0, 1.0, 16.0, 255.0, 144.0, 31.0, 112.0, 0.0, 0.0, 0.0, 1.6895992471082208E9, 0.0, 2023-07-17 15:07:27.108
227.0, -105.7237512736024, 187500.0, 187500.0, 187500.0, 187500.0, 187500.0, 187500.0, 187500.0, 0.034, -0.014, 1.006, 192.0, 0.0, 0.0, 0.0, 0.0, 0.0, 0.0, 0.0, 0.0, 0.0, 1.6895992471082752E9, 0.0, 2023-07-17 15:07:27.108
228.0, -112.6527920547476, 187500.0, 187500.0, 187500.0, 187500.0, 187500.0, 187500.0, 187500.0, 0.034, -0.014, 1.006, 192.0, 0.0, 0.0, 0.0, 0.0, 0.0, 0.0, 0.0, 0.0, 0.0, 1.6895992471083224E9, 0.0, 2023-07-17 15:07:27.108
229.0, -130.91416727473347, 187500.0, 187500.0, 187500.0, 187500.0, 187500.0, 187500.0, 187500.0, 0.034, -0.014, 1.006, 192.0, 0.0, 0.0, 0.0, 0.0, 0.0, 0.0, 0.0, 0.0, 0.0, 1.6895992471083736E9, 0.0, 2023-07-17 15:07:27.108
230.0, -134.87042604332282, 187500.0, 187500.0, 187500.0, 187500.0, 187500.0, 187500.0, 187500.0, 0.034, -0.014, 1.006, 192.0, 0.0, 0.0, 0.0, 0.0, 0.0, 0.0, 0.0, 0.0, 0.0, 1.6895992471084864E9, 0.0, 2023-07-17 15:07:27.108
231.0, -118.84422526886765, 187500.0, 187500.0, 187500.0, 187500.0, 187500.0, 187500.0, 187500.0, 0.034, -0.014, 1.006, 192.0, 0.0, 0.0, 0.0, 0.0, 0.0, 0.0, 0.0, 0.0, 0.0, 1.6895992471085417E9, 0.0, 2023-07-17 15:07:27.108
232.0, -105.7013995291471, 187500.0, 187500.0, 187500.0, 187500.0, 187500.0, 187500.0, 187500.0, 0.034, -0.014, 1.006, 192.0, 0.0, 0.0, 0.0, 0.0, 0.0, 0.0, 0.0, 0.0, 0.0, 1.6895992471086009E9, 0.0, 2023-07-17 15:07:27.108
233.0, -112.42927461019453, 187500.0, 187500.0, 187500.0, 187500.0, 187500.0, 187500.0, 187500.0, 0.034, -0.014, 1.006, 192.0, 0.0, 0.0, 0.0, 0.0, 0.0, 0.0, 0.0, 0.0, 0.0, 1.689599247108657E9, 0.0, 2023-07-17 15:07:27.108
234.0, -130.28831842998486, 187500.0, 187500.0, 187500.0, 187500.0, 187500.0, 187500.0, 187500.0, 0.034, -0.014, 1.006, 192.0, 0.0, 0.0, 0.0, 0.0, 0.0, 0.0, 0.0, 0.0, 0.0, 1.689599247108716E9, 0.0, 2023-07-17 15:07:27.108
235.0, -134.87042604332282, 187500.0, 187500.0, 187500.0, 187500.0, 187500.0, 187500.0, 187500.0, 0.034, -0.014, 1.006, 192.0, 0.0, 0.0, 0.0, 0.0, 0.0, 0.0, 0.0, 0.0, 0.0, 1.6895992471087697E9, 0.0, 2023-07-17 15:07:27.108
236.0, -119.06774271342073, 187500.0, 187500.0, 187500.0, 187500.0, 187500.0, 187500.0, 187500.0, 0.034, -0.014, 1.006, 192.0, 1.0, 16.0, 255.0, 144.0, 31.0, 112.0, 0.0, 0.0, 0.0, 1.689599247108827E9, 0.0, 2023-07-17 15:07:27.108
237.0, -105.0308471954879, 187500.0, 187500.0, 187500.0, 187500.0, 187500.0, 187500.0, 187500.0, 0.034, -0.014, 1.006, 192.0, 0.0, 0.0, 0.0, 0.0, 0.0, 0.0, 0.0, 0.0, 0.0, 1.6895992471088848E9, 0.0, 2023-07-17 15:07:27.108
238.0, -112.51868158801575, 187500.0, 187500.0, 187500.0, 187500.0, 187500.0, 187500.0, 187500.0, 0.034, -0.014, 1.006, 192.0, 0.0, 0.0, 0.0, 0.0, 0.0, 0.0, 0.0, 0.0, 0.0, 1.6895992471089435E9, 0.0, 2023-07-17 15:07:27.108
239.0, -130.62359459681448, 187500.0, 187500.0, 187500.0, 187500.0, 187500.0, 187500.0, 187500.0, 0.034, -0.014, 1.006, 192.0, 0.0, 0.0, 0.0, 0.0, 0.0, 0.0, 0.0, 0.0, 0.0, 1.689599247109001E9, 0.0, 2023-07-17 15:07:27.109
240.0, -134.7810190655016, 187500.0, 187500.0, 187500.0, 187500.0, 187500.0, 187500.0, 187500.0, 0.034, -0.014, 1.006, 192.0, 0.0, 0.0, 0.0, 0.0, 0.0, 0.0, 0.0, 0.0, 0.0, 1.6895992471090548E9, 0.0, 2023-07-17 15:07:27.109
241.0, -119.55948109143748, 187500.0, 187500.0, 187500.0, 187500.0, 187500.0, 187500.0, 187500.0, 0.034, -0.014, 1.006, 192.0, 0.0, 0.0, 0.0, 0.0, 0.0, 0.0, 0.0, 0.0, 0.0, 1.6895992475818946E9, 0.0, 2023-07-17 15:07:27.581
242.0, -105.25436464004096, 187500.0, 187500.0, 187500.0, 187500.0, 187500.0, 187500.0, 187500.0, 0.034, -0.014, 1.006, 192.0, 0.0, 0.0, 0.0, 0.0, 0.0, 0.0, 0.0, 0.0, 0.0, 1.6895992475820413E9, 0.0, 2023-07-17 15:07:27.582
243.0, -112.45162635464983, 187500.0, 187500.0, 187500.0, 187500.0, 187500.0, 187500.0, 187500.0, 0.034, -0.014, 1.006, 192.0, 0.0, 0.0, 0.0, 0.0, 0.0, 0.0, 0.0, 0.0, 0.0, 1.6895992475821607E9, 0.0, 2023-07-17 15:07:27.582
244.0, -130.6906498301804, 187500.0, 187500.0, 187500.0, 187500.0, 187500.0, 187500.0, 187500.0, 0.034, -0.014, 1.006, 192.0, 0.0, 0.0, 0.0, 0.0, 0.0, 0.0, 0.0, 0.0, 0.0, 1.6895992475822074E9, 0.0, 2023-07-17 15:07:27.582
245.0, -134.84807429886752, 187500.0, 187500.0, 187500.0, 187500.0, 187500.0, 187500.0, 187500.0, 0.034, -0.014, 1.006, 192.0, 0.0, 0.0, 0.0, 0.0, 0.0, 0.0, 0.0, 0.0, 0.0, 1.6895992475825255E9, 0.0, 2023-07-17 15:07:27.582
246.0, -119.00068748005481, 187500.0, 187500.0, 187500.0, 187500.0, 187500.0, 187500.0, 187500.0, 0.034, -0.022, 1.008, 192.0, 1.0, 16.0, 255.0, 80.0, 31.0, 128.0, 0.0, 0.0, 0.0, 1.689599247582579E9, 0.0, 2023-07-17 15:07:27.582
247.0, -105.52258557350464, 187500.0, 187500.0, 187500.0, 187500.0, 187500.0, 187500.0, 187500.0, 0.034, -0.022, 1.008, 192.0, 0.0, 0.0, 0.0, 0.0, 0.0, 0.0, 0.0, 0.0, 0.0, 1.6895992475826347E9, 0.0, 2023-07-17 15:07:27.582
248.0, -113.01041996603252, 187500.0, 187500.0, 187500.0, 187500.0, 187500.0, 187500.0, 187500.0, 0.034, -0.022, 1.008, 192.0, 0.0, 0.0, 0.0, 0.0, 0.0, 0.0, 0.0, 0.0, 0.0, 1.6895992475826857E9, 0.0, 2023-07-17 15:07:27.582
249.0, -131.16003646374185, 187500.0, 187500.0, 187500.0, 187500.0, 187500.0, 187500.0, 187500.0, 0.034, -0.022, 1.008, 192.0, 0.0, 0.0, 0.0, 0.0, 0.0, 0.0, 0.0, 0.0, 0.0, 1.689599247582733E9, 0.0, 2023-07-17 15:07:27.582
250.0, -135.27275744351834, 187500.0, 187500.0, 187500.0, 187500.0, 187500.0, 187500.0, 187500.0, 0.034, -0.022, 1.008, 192.0, 0.0, 0.0, 0.0, 0.0, 0.0, 0.0, 0.0, 0.0, 0.0, 1.689599247582776E9, 0.0, 2023-07-17 15:07:27.582
251.0, -119.60418458034809, 187500.0, 187500.0, 187500.0, 187500.0, 187500.0, 187500.0, 187500.0, 0.034, -0.022, 1.008, 192.0, 0.0, 0.0, 0.0, 0.0, 0.0, 0.0, 0.0, 0.0, 0.0, 1.6895992475828185E9, 0.0, 2023-07-17 15:07:27.582
252.0, -105.07555068439851, 187500.0, 187500.0, 187500.0, 187500.0, 187500.0, 187500.0, 187500.0, 0.034, -0.022, 1.008, 192.0, 0.0, 0.0, 0.0, 0.0, 0.0, 0.0, 0.0, 0.0, 0.0, 1.6895992475828629E9, 0.0, 2023-07-17 15:07:27.582
253.0, -112.9657164771219, 187500.0, 187500.0, 187500.0, 187500.0, 187500.0, 187500.0, 187500.0, 0.034, -0.022, 1.008, 192.0, 0.0, 0.0, 0.0, 0.0, 0.0, 0.0, 0.0, 0.0, 0.0, 1.689599247582911E9, 0.0, 2023-07-17 15:07:27.582
254.0, -131.51766437502675, 187500.0, 187500.0, 187500.0, 187500.0, 187500.0, 187500.0, 187500.0, 0.034, -0.022, 1.008, 192.0, 0.0, 0.0, 0.0, 0.0, 0.0, 0.0, 0.0, 0.0, 0.0, 1.6895992475829585E9, 0.0, 2023-07-17 15:07:27.582
255.0, -135.36216442133957, 187500.0, 187500.0, 187500.0, 187500.0, 187500.0, 187500.0, 187500.0, 0.034, -0.022, 1.008, 192.0, 0.0, 0.0, 0.0, 0.0, 0.0, 0.0, 0.0, 0.0, 0.0, 1.689599247583007E9, 0.0, 2023-07-17 15:07:27.583
0.0, -118.73246654659111, 187500.0, 187500.0, 187500.0, 187500.0, 187500.0, 187500.0, 187500.0, 0.038, -0.018000000000000002, 1.006, 192.0, 1.0, 48.0, 255.0, 112.0, 31.0, 112.0, 0.0, 0.0, 0.0, 1.6895992475830512E9, 0.0, 2023-07-17 15:07:27.583
1.0, -105.41082685122811, 187500.0, 187500.0, 187500.0, 187500.0, 187500.0, 187500.0, 187500.0, 0.038, -0.018000000000000002, 1.006, 192.0, 0.0, 0.0, 0.0, 0.0, 0.0, 0.0, 0.0, 0.0, 0.0, 1.6895992475830972E9, 0.0, 2023-07-17 15:07:27.583
2.0, -112.56338507692637, 187500.0, 187500.0, 187500.0, 187500.0, 187500.0, 187500.0, 187500.0, 0.038, -0.018000000000000002, 1.006, 192.0, 0.0, 0.0, 0.0, 0.0, 0.0, 0.0, 0.0, 0.0, 0.0, 1.6895992475831409E9, 0.0, 2023-07-17 15:07:27.583
3.0, -130.7130015746357, 187500.0, 187500.0, 187500.0, 187500.0, 187500.0, 187500.0, 187500.0, 0.038, -0.018000000000000002, 1.006, 192.0, 0.0, 0.0, 0.0, 0.0, 0.0, 0.0, 0.0, 0.0, 0.0, 1.6895992475831852E9, 0.0, 2023-07-17 15:07:27.583
4.0, -135.22805395460773, 187500.0, 187500.0, 187500.0, 187500.0, 187500.0, 187500.0, 187500.0, 0.038, -0.018000000000000002, 1.006, 192.0, 0.0, 0.0, 0.0, 0.0, 0.0, 0.0, 0.0, 0.0, 0.0, 1.6895992475834706E9, 0.0, 2023-07-17 15:07:27.583
5.0, -119.38066713579502, 187500.0, 187500.0, 187500.0, 187500.0, 187500.0, 187500.0, 187500.0, 0.038, -0.018000000000000002, 1.006, 192.0, 0.0, 0.0, 0.0, 0.0, 0.0, 0.0, 0.0, 0.0, 0.0, 1.689599247583537E9, 0.0, 2023-07-17 15:07:27.583
6.0, -105.3884751067728, 187500.0, 187500.0, 187500.0, 187500.0, 187500.0, 187500.0, 187500.0, 0.038, -0.018000000000000002, 1.006, 192.0, 0.0, 0.0, 0.0, 0.0, 0.0, 0.0, 0.0, 0.0, 0.0, 1.6895992475836184E9, 0.0, 2023-07-17 15:07:27.583
7.0, -112.85395775484535, 187500.0, 187500.0, 187500.0, 187500.0, 187500.0, 187500.0, 187500.0, 0.038, -0.018000000000000002, 1.006, 192.0, 0.0, 0.0, 0.0, 0.0, 0.0, 0.0, 0.0, 0.0, 0.0, 1.6895992475836768E9, 0.0, 2023-07-17 15:07:27.583
8.0, -130.46713238562734, 187500.0, 187500.0, 187500.0, 187500.0, 187500.0, 187500.0, 187500.0, 0.038, -0.018000000000000002, 1.006, 192.0, 0.0, 0.0, 0.0, 0.0, 0.0, 0.0, 0.0, 0.0, 0.0, 1.6895992475837224E9, 0.0, 2023-07-17 15:07:27.583
9.0, -134.91512953223344, 187500.0, 187500.0, 187500.0, 187500.0, 187500.0, 187500.0, 187500.0, 0.038, -0.018000000000000002, 1.006, 192.0, 0.0, 0.0, 0.0, 0.0, 0.0, 0.0, 0.0, 0.0, 0.0, 1.689599247583768E9, 0.0, 2023-07-17 15:07:27.583
10.0, -119.55948109143748, 187500.0, 187500.0, 187500.0, 187500.0, 187500.0, 187500.0, 187500.0, 0.034, -0.016, 1.008, 192.0, 1.0, 16.0, 255.0, 128.0, 31.0, 128.0, 0.0, 0.0, 0.0, 1.6895992475838125E9, 0.0, 2023-07-17 15:07:27.583
11.0, -105.63434429578118, 187500.0, 187500.0, 187500.0, 187500.0, 187500.0, 187500.0, 187500.0, 0.034, -0.016, 1.008, 192.0, 0.0, 0.0, 0.0, 0.0, 0.0, 0.0, 0.0, 0.0, 0.0, 1.68959924758386E9, 0.0, 2023-07-17 15:07:27.583
12.0, -112.13870193227554, 187500.0, 187500.0, 187500.0, 187500.0, 187500.0, 187500.0, 187500.0, 0.034, -0.016, 1.008, 192.0, 0.0, 0.0, 0.0, 0.0, 0.0, 0.0, 0.0, 0.0, 0.0, 1.6895992475839052E9, 0.0, 2023-07-17 15:07:27.583
13.0, -130.42242889671672, 187500.0, 187500.0, 187500.0, 187500.0, 187500.0, 187500.0, 187500.0, 0.034, -0.016, 1.008, 192.0, 0.0, 0.0, 0.0, 0.0, 0.0, 0.0, 0.0, 0.0, 0.0, 1.689599247583951E9, 0.0, 2023-07-17 15:07:27.583
14.0, -134.93748127668874, 187500.0, 187500.0, 187500.0, 187500.0, 187500.0, 187500.0, 187500.0, 0.034, -0.016, 1.008, 192.0, 0.0, 0.0, 0.0, 0.0, 0.0, 0.0, 0.0, 0.0, 0.0, 1.6895992475839953E9, 0.0, 2023-07-17 15:07:27.583
15.0, -118.9559839911442, 187500.0, 187500.0, 187500.0, 187500.0, 187500.0, 187500.0, 187500.0, 0.034, -0.016, 1.008, 192.0, 0.0, 0.0, 0.0, 0.0, 0.0, 0.0, 0.0, 0.0, 0.0, 1.6895992475840385E9, 0.0, 2023-07-17 15:07:27.584
16.0, -105.07555068439851, 187500.0, 187500.0, 187500.0, 187500.0, 187500.0, 187500.0, 187500.0, 0.034, -0.016, 1.008, 192.0, 0.0, 0.0, 0.0, 0.0, 0.0, 0.0, 0.0, 0.0, 0.0, 1.6895992475840821E9, 0.0, 2023-07-17 15:07:27.584
17.0, -112.09399844336492, 187500.0, 187500.0, 187500.0, 187500.0, 187500.0, 187500.0, 187500.0, 0.034, -0.016, 1.008, 192.0, 0.0, 0.0, 0.0, 0.0, 0.0, 0.0, 0.0, 0.0, 0.0, 1.6895992475841267E9, 0.0, 2023-07-17 15:07:27.584
18.0, -130.35537366335078, 187500.0, 187500.0, 187500.0, 187500.0, 187500.0, 187500.0, 187500.0, 0.034, -0.016, 1.008, 192.0, 0.0, 0.0, 0.0, 0.0, 0.0, 0.0, 0.0, 0.0, 0.0, 1.6895992475841713E9, 0.0, 2023-07-17 15:07:27.584
19.0, -135.38451616579488, 187500.0, 187500.0, 187500.0, 187500.0, 187500.0, 187500.0, 187500.0, 0.034, -0.016, 1.008, 192.0, 0.0, 0.0, 0.0, 0.0, 0.0, 0.0, 0.0, 0.0, 0.0, 1.6895992475843303E9, 0.0, 2023-07-17 15:07:27.584
20.0, -119.96181249163301, 187500.0, 187500.0, 187500.0, 187500.0, 187500.0, 187500.0, 187500.0, 0.034, -0.018000000000000002, 1.006, 192.0, 1.0, 16.0, 255.0, 112.0, 31.0, 112.0, 0.0, 0.0, 0.0, 1.6895992475843737E9, 0.0, 2023-07-17 15:07:27.584
21.0, -105.65669604023648, 187500.0, 187500.0, 187500.0, 187500.0, 187500.0, 187500.0, 187500.0, 0.034, -0.018000000000000002, 1.006, 192.0, 0.0, 0.0, 0.0, 0.0, 0.0, 0.0, 0.0, 0.0, 0.0, 1.68959924758442E9, 0.0, 2023-07-17 15:07:27.584
22.0, -111.69166704316939, 187500.0, 187500.0, 187500.0, 187500.0, 187500.0, 187500.0, 187500.0, 0.034, -0.018000000000000002, 1.006, 192.0, 0.0, 0.0, 0.0, 0.0, 0.0, 0.0, 0.0, 0.0, 0.0, 1.689599247584472E9, 0.0, 2023-07-17 15:07:27.584
23.0, -130.6906498301804, 187500.0, 187500.0, 187500.0, 187500.0, 187500.0, 187500.0, 187500.0, 0.034, -0.018000000000000002, 1.006, 192.0, 0.0, 0.0, 0.0, 0.0, 0.0, 0.0, 0.0, 0.0, 0.0, 1.689599247584546E9, 0.0, 2023-07-17 15:07:27.584
24.0, -135.60803361034795, 187500.0, 187500.0, 187500.0, 187500.0, 187500.0, 187500.0, 187500.0, 0.034, -0.018000000000000002, 1.006, 192.0, 0.0, 0.0, 0.0, 0.0, 0.0, 0.0, 0.0, 0.0, 0.0, 1.689599247584698E9, 0.0, 2023-07-17 15:07:27.584
25.0, -119.6265363248034, 187500.0, 187500.0, 187500.0, 187500.0, 187500.0, 187500.0, 187500.0, 0.034, -0.018000000000000002, 1.006, 192.0, 0.0, 0.0, 0.0, 0.0, 0.0, 0.0, 0.0, 0.0, 0.0, 1.6895992475848656E9, 0.0, 2023-07-17 15:07:27.584
26.0, -105.3661233623175, 187500.0, 187500.0, 187500.0, 187500.0, 187500.0, 187500.0, 187500.0, 0.034, -0.018000000000000002, 1.006, 192.0, 0.0, 0.0, 0.0, 0.0, 0.0, 0.0, 0.0, 0.0, 0.0, 1.6895992475849986E9, 0.0, 2023-07-17 15:07:27.584
27.0, -112.3398676323733, 187500.0, 187500.0, 187500.0, 187500.0, 187500.0, 187500.0, 187500.0, 0.034, -0.018000000000000002, 1.006, 192.0, 0.0, 0.0, 0.0, 0.0, 0.0, 0.0, 0.0, 0.0, 0.0, 1.6895992475851316E9, 0.0, 2023-07-17 15:07:27.585
28.0, -130.62359459681448, 187500.0, 187500.0, 187500.0, 187500.0, 187500.0, 187500.0, 187500.0, 0.034, -0.018000000000000002, 1.006, 192.0, 0.0, 0.0, 0.0, 0.0, 0.0, 0.0, 0.0, 0.0, 0.0, 1.68959924758526E9, 0.0, 2023-07-17 15:07:27.585
29.0, -135.4292196547055, 187500.0, 187500.0, 187500.0, 187500.0, 187500.0, 187500.0, 187500.0, 0.034, -0.018000000000000002, 1.006, 192.0, 0.0, 0.0, 0.0, 0.0, 0.0, 0.0, 0.0, 0.0, 0.0, 1.6895992475853875E9, 0.0, 2023-07-17 15:07:27.585
30.0, -119.96181249163301, 187500.0, 187500.0, 187500.0, 187500.0, 187500.0, 187500.0, 187500.0, 0.036000000000000004, -0.016, 1.004, 192.0, 1.0, 32.0, 255.0, 128.0, 31.0, 96.0, 0.0, 0.0, 0.0, 1.6895992475855107E9, 0.0, 2023-07-17 15:07:27.585
31.0, -105.43317859568342, 187500.0, 187500.0, 187500.0, 187500.0, 187500.0, 187500.0, 187500.0, 0.036000000000000004, -0.016, 1.004, 192.0, 0.0, 0.0, 0.0, 0.0, 0.0, 0.0, 0.0, 0.0, 0.0, 1.6895992475855672E9, 0.0, 2023-07-17 15:07:27.585
32.0, -112.29516414346269, 187500.0, 187500.0, 187500.0, 187500.0, 187500.0, 187500.0, 187500.0, 0.036000000000000004, -0.016, 1.004, 192.0, 0.0, 0.0, 0.0, 0.0, 0.0, 0.0, 0.0, 0.0, 0.0, 1.6895992475856194E9, 0.0, 2023-07-17 15:07:27.585
33.0, -130.86946378582286, 187500.0, 187500.0, 187500.0, 187500.0, 187500.0, 187500.0, 187500.0, 0.036000000000000004, -0.016, 1.004, 192.0, 0.0, 0.0, 0.0, 0.0, 0.0, 0.0, 0.0, 0.0, 0.0, 1.6895992475856645E9, 0.0, 2023-07-17 15:07:27.585
34.0, -135.65273709925856, 187500.0, 187500.0, 187500.0, 187500.0, 187500.0, 187500.0, 187500.0, 0.036000000000000004, -0.016, 1.004, 192.0, 0.0, 0.0, 0.0, 0.0, 0.0, 0.0, 0.0, 0.0, 0.0, 1.6895992475857165E9, 0.0, 2023-07-17 15:07:27.585
35.0, -119.80535028044585, 187500.0, 187500.0, 187500.0, 187500.0, 187500.0, 187500.0, 187500.0, 0.036000000000000004, -0.016, 1.004, 192.0, 0.0, 0.0, 0.0, 0.0, 0.0, 0.0, 0.0, 0.0, 0.0, 1.6895992475858977E9, 0.0, 2023-07-17 15:07:27.585
36.0, -105.85786174033424, 187500.0, 187500.0, 187500.0, 187500.0, 187500.0, 187500.0, 187500.0, 0.036000000000000004, -0.016, 1.004, 192.0, 0.0, 0.0, 0.0, 0.0, 0.0, 0.0, 0.0, 0.0, 0.0, 1.6895992475859604E9, 0.0, 2023-07-17 15:07:27.585
37.0, -111.73637053208, 187500.0, 187500.0, 187500.0, 187500.0, 187500.0, 187500.0, 187500.0, 0.036000000000000004, -0.016, 1.004, 192.0, 0.0, 0.0, 0.0, 0.0, 0.0, 0.0, 0.0, 0.0, 0.0, 1.6895992475860105E9, 0.0, 2023-07-17 15:07:27.586
38.0, -129.84128354087872, 187500.0, 187500.0, 187500.0, 187500.0, 187500.0, 187500.0, 187500.0, 0.036000000000000004, -0.016, 1.004, 192.0, 0.0, 0.0, 0.0, 0.0, 0.0, 0.0, 0.0, 0.0, 0.0, 1.6895992475860596E9, 0.0, 2023-07-17 15:07:27.586
39.0, -134.95983302114405, 187500.0, 187500.0, 187500.0, 187500.0, 187500.0, 187500.0, 187500.0, 0.036000000000000004, -0.016, 1.004, 192.0, 0.0, 0.0, 0.0, 0.0, 0.0, 0.0, 0.0, 0.0, 0.0, 1.68959924758618E9, 0.0, 2023-07-17 15:07:27.586
40.0, -120.29708865846261, 187500.0, 187500.0, 187500.0, 187500.0, 187500.0, 187500.0, 187500.0, 0.036000000000000004, -0.014, 1.002, 192.0, 1.0, 32.0, 255.0, 144.0, 31.0, 80.0, 0.0, 0.0, 0.0, 1.6895992475862367E9, 0.0, 2023-07-17 15:07:27.586
41.0, -105.7013995291471, 187500.0, 187500.0, 187500.0, 187500.0, 187500.0, 187500.0, 187500.0, 0.036000000000000004, -0.014, 1.002, 192.0, 0.0, 0.0, 0.0, 0.0, 0.0, 0.0, 0.0, 0.0, 0.0, 1.6895992475862904E9, 0.0, 2023-07-17 15:07:27.586
42.0, -111.89283274326715, 187500.0, 187500.0, 187500.0, 187500.0, 187500.0, 187500.0, 187500.0, 0.036000000000000004, -0.014, 1.002, 192.0, 0.0, 0.0, 0.0, 0.0, 0.0, 0.0, 0.0, 0.0, 0.0, 1.6895992475863895E9, 0.0, 2023-07-17 15:07:27.586
43.0, -129.70717307414688, 187500.0, 187500.0, 187500.0, 187500.0, 187500.0, 187500.0, 187500.0, 0.036000000000000004, -0.014, 1.002, 192.0, 0.0, 0.0, 0.0, 0.0, 0.0, 0.0, 0.0, 0.0, 0.0, 1.6895992475864596E9, 0.0, 2023-07-17 15:07:27.586
44.0, -135.1609987212418, 187500.0, 187500.0, 187500.0, 187500.0, 187500.0, 187500.0, 187500.0, 0.036000000000000004, -0.014, 1.002, 192.0, 0.0, 0.0, 0.0, 0.0, 0.0, 0.0, 0.0, 0.0, 0.0, 1.6895992475865304E9, 0.0, 2023-07-17 15:07:27.586
45.0, -119.58183283589278, 187500.0, 187500.0, 187500.0, 187500.0, 187500.0, 187500.0, 187500.0, 0.036000000000000004, -0.014, 1.002, 192.0, 0.0, 0.0, 0.0, 0.0, 0.0, 0.0, 0.0, 0.0, 0.0, 1.6895992475865877E9, 0.0, 2023-07-17 15:07:27.586
46.0, -104.85203323984543, 187500.0, 187500.0, 187500.0, 187500.0, 187500.0, 187500.0, 187500.0, 0.036000000000000004, -0.014, 1.002, 192.0, 0.0, 0.0, 0.0, 0.0, 0.0, 0.0, 0.0, 0.0, 0.0, 1.6895992475866404E9, 0.0, 2023-07-17 15:07:27.586
47.0, -111.22228040960795, 187500.0, 187500.0, 187500.0, 187500.0, 187500.0, 187500.0, 187500.0, 0.036000000000000004, -0.014, 1.002, 192.0, 0.0, 0.0, 0.0, 0.0, 0.0, 0.0, 0.0, 0.0, 0.0, 1.689599247586692E9, 0.0, 2023-07-17 15:07:27.586
48.0, -130.28831842998486, 187500.0, 187500.0, 187500.0, 187500.0, 187500.0, 187500.0, 187500.0, 0.036000000000000004, -0.014, 1.002, 192.0, 0.0, 0.0, 0.0, 0.0, 0.0, 0.0, 0.0, 0.0, 0.0, 1.6895992475867484E9, 0.0, 2023-07-17 15:07:27.586
49.0, -135.65273709925856, 187500.0, 187500.0, 187500.0, 187500.0, 187500.0, 187500.0, 187500.0, 0.036000000000000004, -0.014, 1.002, 192.0, 0.0, 0.0, 0.0, 0.0, 0.0, 0.0, 0.0, 0.0, 0.0, 1.6895992475868015E9, 0.0, 2023-07-17 15:07:27.586
50.0, -119.73829504707993, 187500.0, 187500.0, 187500.0, 187500.0, 187500.0, 187500.0, 187500.0, 0.034, -0.016, 1.004, 192.0, 1.0, 16.0, 255.0, 128.0, 31.0, 96.0, 0.0, 0.0, 0.0, 1.6895992475871298E9, 0.0, 2023-07-17 15:07:27.587
51.0, -106.26019314052978, 187500.0, 187500.0, 187500.0, 187500.0, 187500.0, 187500.0, 187500.0, 0.034, -0.016, 1.004, 192.0, 0.0, 0.0, 0.0, 0.0, 0.0, 0.0, 0.0, 0.0, 0.0, 1.6895992475871892E9, 0.0, 2023-07-17 15:07:27.587
52.0, -112.13870193227554, 187500.0, 187500.0, 187500.0, 187500.0, 187500.0, 187500.0, 187500.0, 0.034, -0.016, 1.004, 192.0, 0.0, 0.0, 0.0, 0.0, 0.0, 0.0, 0.0, 0.0, 0.0, 1.6895992475872433E9, 0.0, 2023-07-17 15:07:27.587
53.0, -130.19891145216363, 187500.0, 187500.0, 187500.0, 187500.0, 187500.0, 187500.0, 187500.0, 0.034, -0.016, 1.004, 192.0, 0.0, 0.0, 0.0, 0.0, 0.0, 0.0, 0.0, 0.0, 0.0, 1.689599247587293E9, 0.0, 2023-07-17 15:07:27.587
54.0, -135.96566152163285, 187500.0, 187500.0, 187500.0, 187500.0, 187500.0, 187500.0, 187500.0, 0.034, -0.016, 1.004, 192.0, 0.0, 0.0, 0.0, 0.0, 0.0, 0.0, 0.0, 0.0, 0.0, 1.689599247587338E9, 0.0, 2023-07-17 15:07:27.587
55.0, -120.36414389182853, 187500.0, 187500.0, 187500.0, 187500.0, 187500.0, 187500.0, 187500.0, 0.034, -0.016, 1.004, 192.0, 0.0, 0.0, 0.0, 0.0, 0.0, 0.0, 0.0, 0.0, 0.0, 1.6895992475873857E9, 0.0, 2023-07-17 15:07:27.587
56.0, -105.47788208459403, 187500.0, 187500.0, 187500.0, 187500.0, 187500.0, 187500.0, 187500.0, 0.034, -0.016, 1.004, 192.0, 0.0, 0.0, 0.0, 0.0, 0.0, 0.0, 0.0, 0.0, 0.0, 1.6895992475874324E9, 0.0, 2023-07-17 15:07:27.587
57.0, -111.60226006534816, 187500.0, 187500.0, 187500.0, 187500.0, 187500.0, 187500.0, 187500.0, 0.034, -0.016, 1.004, 192.0, 0.0, 0.0, 0.0, 0.0, 0.0, 0.0, 0.0, 0.0, 0.0, 1.689599247587486E9, 0.0, 2023-07-17 15:07:27.587
58.0, -129.90833877424464, 187500.0, 187500.0, 187500.0, 187500.0, 187500.0, 187500.0, 187500.0, 0.034, -0.016, 1.004, 192.0, 0.0, 0.0, 0.0, 0.0, 0.0, 0.0, 0.0, 0.0, 0.0, 1.6895992475875907E9, 0.0, 2023-07-17 15:07:27.587
59.0, -135.4962748880714, 187500.0, 187500.0, 187500.0, 187500.0, 187500.0, 187500.0, 187500.0, 0.034, -0.016, 1.004, 192.0, 0.0, 0.0, 0.0, 0.0, 0.0, 0.0, 0.0, 0.0, 0.0, 1.689599247587666E9, 0.0, 2023-07-17 15:07:27.587
60.0, -120.61001308083691, 187500.0, 187500.0, 187500.0, 187500.0, 187500.0, 187500.0, 187500.0, 0.038, -0.02, 1.01, 192.0, 1.0, 48.0, 255.0, 96.0, 31.0, 144.0, 0.0, 0.0, 0.0, 1.6895992475877295E9, 0.0, 2023-07-17 15:07:27.587
61.0, -105.92491697370016, 187500.0, 187500.0, 187500.0, 187500.0, 187500.0, 187500.0, 187500.0, 0.038, -0.02, 1.01, 192.0, 0.0, 0.0, 0.0, 0.0, 0.0, 0.0, 0.0, 0.0, 0.0, 1.6895992475877905E9, 0.0, 2023-07-17 15:07:27.587
62.0, -111.75872227653531, 187500.0, 187500.0, 187500.0, 187500.0, 187500.0, 187500.0, 187500.0, 0.038, -0.02, 1.01, 192.0, 0.0, 0.0, 0.0, 0.0, 0.0, 0.0, 0.0, 0.0, 0.0, 1.6895992475878496E9, 0.0, 2023-07-17 15:07:27.587
63.0, -129.66246958523627, 187500.0, 187500.0, 187500.0, 187500.0, 187500.0, 187500.0, 187500.0, 0.038, -0.02, 1.01, 192.0, 0.0, 0.0, 0.0, 0.0, 0.0, 0.0, 0.0, 0.0, 0.0, 1.6895992475879076E9, 0.0, 2023-07-17 15:07:27.587
64.0, -135.85390279935632, 187500.0, 187500.0, 187500.0, 187500.0, 187500.0, 187500.0, 187500.0, 0.038, -0.02, 1.01, 192.0, 0.0, 0.0, 0.0, 0.0, 0.0, 0.0, 0.0, 0.0, 0.0, 1.689599247587963E9, 0.0, 2023-07-17 15:07:27.587
65.0, -120.96764099212183, 187500.0, 187500.0, 187500.0, 187500.0, 187500.0, 187500.0, 187500.0, 0.038, -0.02, 1.01, 192.0, 0.0, 0.0, 0.0, 0.0, 0.0, 0.0, 0.0, 0.0, 0.0, 1.6895992475883555E9, 0.0, 2023-07-17 15:07:27.588
66.0, -105.32141987340688, 187500.0, 187500.0, 187500.0, 187500.0, 187500.0, 187500.0, 187500.0, 0.038, -0.02, 1.01, 192.0, 0.0, 0.0, 0.0, 0.0, 0.0, 0.0, 0.0, 0.0, 0.0, 1.6895992475884209E9, 0.0, 2023-07-17 15:07:27.588
67.0, -110.84230075386772, 187500.0, 187500.0, 187500.0, 187500.0, 187500.0, 187500.0, 187500.0, 0.038, -0.02, 1.01, 192.0, 0.0, 0.0, 0.0, 0.0, 0.0, 0.0, 0.0, 0.0, 0.0, 1.6895992475885E9, 0.0, 2023-07-17 15:07:27.588
68.0, -129.61776609632565, 187500.0, 187500.0, 187500.0, 187500.0, 187500.0, 187500.0, 187500.0, 0.038, -0.02, 1.01, 192.0, 0.0, 0.0, 0.0, 0.0, 0.0, 0.0, 0.0, 0.0, 0.0, 1.689599247588579E9, 0.0, 2023-07-17 15:07:27.588
69.0, -134.60220510985914, 187500.0, 187500.0, 187500.0, 187500.0, 187500.0, 187500.0, 187500.0, 0.038, -0.02, 1.01, 192.0, 0.0, 0.0, 0.0, 0.0, 0.0, 0.0, 0.0, 0.0, 0.0, 1.6895992475886533E9, 0.0, 2023-07-17 15:07:27.588
70.0, -120.2747369140073, 187500.0, 187500.0, 187500.0, 187500.0, 187500.0, 187500.0, 187500.0, 0.038, -0.016, 1.018, 192.0, 1.0, 48.0, 255.0, 128.0, 31.0, 208.0, 0.0, 0.0, 0.0, 1.6895992475887184E9, 0.0, 2023-07-17 15:07:27.588
71.0, -105.92491697370016, 187500.0, 187500.0, 187500.0, 187500.0, 187500.0, 187500.0, 187500.0, 0.038, -0.016, 1.018, 192.0, 0.0, 0.0, 0.0, 0.0, 0.0, 0.0, 0.0, 0.0, 0.0, 1.6895992475887983E9, 0.0, 2023-07-17 15:07:27.588
72.0, -111.28933564297387, 187500.0, 187500.0, 187500.0, 187500.0, 187500.0, 187500.0, 187500.0, 0.038, -0.016, 1.018, 192.0, 0.0, 0.0, 0.0, 0.0, 0.0, 0.0, 0.0, 0.0, 0.0, 1.6895992475888574E9, 0.0, 2023-07-17 15:07:27.588
73.0, -129.84128354087872, 187500.0, 187500.0, 187500.0, 187500.0, 187500.0, 187500.0, 187500.0, 0.038, -0.016, 1.018, 192.0, 0.0, 0.0, 0.0, 0.0, 0.0, 0.0, 0.0, 0.0, 0.0, 1.6895992475889127E9, 0.0, 2023-07-17 15:07:27.588
74.0, -135.831551054901, 187500.0, 187500.0, 187500.0, 187500.0, 187500.0, 187500.0, 187500.0, 0.038, -0.016, 1.018, 192.0, 0.0, 0.0, 0.0, 0.0, 0.0, 0.0, 0.0, 0.0, 0.0, 1.6895992475889683E9, 0.0, 2023-07-17 15:07:27.588
75.0, -120.9005857587559, 187500.0, 187500.0, 187500.0, 187500.0, 187500.0, 187500.0, 187500.0, 0.038, -0.016, 1.018, 192.0, 0.0, 0.0, 0.0, 0.0, 0.0, 0.0, 0.0, 0.0, 0.0, 1.6895992475890255E9, 0.0, 2023-07-17 15:07:27.589
76.0, -105.76845476251302, 187500.0, 187500.0, 187500.0, 187500.0, 187500.0, 187500.0, 187500.0, 0.038, -0.016, 1.018, 192.0, 0.0, 0.0, 0.0, 0.0, 0.0, 0.0, 0.0, 0.0, 0.0, 1.689599247589106E9, 0.0, 2023-07-17 15:07:27.589
77.0, -111.78107402099062, 187500.0, 187500.0, 187500.0, 187500.0, 187500.0, 187500.0, 187500.0, 0.038, -0.016, 1.018, 192.0, 0.0, 0.0, 0.0, 0.0, 0.0, 0.0, 0.0, 0.0, 0.0, 1.689599247589167E9, 0.0, 2023-07-17 15:07:27.589
78.0, -129.7965800519681, 187500.0, 187500.0, 187500.0, 187500.0, 187500.0, 187500.0, 187500.0, 0.038, -0.016, 1.018, 192.0, 0.0, 0.0, 0.0, 0.0, 0.0, 0.0, 0.0, 0.0, 0.0, 1.6895992475892196E9, 0.0, 2023-07-17 15:07:27.589
79.0, -135.4962748880714, 187500.0, 187500.0, 187500.0, 187500.0, 187500.0, 187500.0, 187500.0, 0.038, -0.016, 1.018, 192.0, 0.0, 0.0, 0.0, 0.0, 0.0, 0.0, 0.0, 0.0, 0.0, 1.6895992475892644E9, 0.0, 2023-07-17 15:07:27.589
80.0, -120.74412354756875, 187500.0, 187500.0, 187500.0, 187500.0, 187500.0, 187500.0, 187500.0, 0.034, -0.02, 1.012, 192.0, 1.0, 16.0, 255.0, 96.0, 31.0, 160.0, 0.0, 0.0, 0.0, 1.6895992475893168E9, 0.0, 2023-07-17 15:07:27.589
81.0, -106.19313790716386, 187500.0, 187500.0, 187500.0, 187500.0, 187500.0, 187500.0, 187500.0, 0.034, -0.02, 1.012, 192.0, 0.0, 0.0, 0.0, 0.0, 0.0, 0.0, 0.0, 0.0, 0.0, 1.6895992475896428E9, 0.0, 2023-07-17 15:07:27.589
82.0, -111.62461180980347, 187500.0, 187500.0, 187500.0, 187500.0, 187500.0, 187500.0, 187500.0, 0.034, -0.02, 1.012, 192.0, 0.0, 0.0, 0.0, 0.0, 0.0, 0.0, 0.0, 0.0, 0.0, 1.6895992475896933E9, 0.0, 2023-07-17 15:07:27.589
83.0, -129.90833877424464, 187500.0, 187500.0, 187500.0, 187500.0, 187500.0, 187500.0, 187500.0, 0.034, -0.02, 1.012, 192.0, 0.0, 0.0, 0.0, 0.0, 0.0, 0.0, 0.0, 0.0, 0.0, 1.6895992475897405E9, 0.0, 2023-07-17 15:07:27.589
84.0, -136.12212373282, 187500.0, 187500.0, 187500.0, 187500.0, 187500.0, 187500.0, 187500.0, 0.034, -0.02, 1.012, 192.0, 0.0, 0.0, 0.0, 0.0, 0.0, 0.0, 0.0, 0.0, 0.0, 1.689599247589788E9, 0.0, 2023-07-17 15:07:27.589
85.0, -120.47590261410507, 187500.0, 187500.0, 187500.0, 187500.0, 187500.0, 187500.0, 187500.0, 0.034, -0.02, 1.012, 192.0, 0.0, 0.0, 0.0, 0.0, 0.0, 0.0, 0.0, 0.0, 0.0, 1.6895992475898345E9, 0.0, 2023-07-17 15:07:27.589
86.0, -105.58964080687056, 187500.0, 187500.0, 187500.0, 187500.0, 187500.0, 187500.0, 187500.0, 0.034, -0.02, 1.012, 192.0, 0.0, 0.0, 0.0, 0.0, 0.0, 0.0, 0.0, 0.0, 0.0, 1.6895992475898817E9, 0.0, 2023-07-17 15:07:27.589
87.0, -111.02111470951019, 187500.0, 187500.0, 187500.0, 187500.0, 187500.0, 187500.0, 187500.0, 0.034, -0.02, 1.012, 192.0, 0.0, 0.0, 0.0, 0.0, 0.0, 0.0, 0.0, 0.0, 0.0, 1.6895992475899267E9, 0.0, 2023-07-17 15:07:27.589
88.0, -129.4389521406832, 187500.0, 187500.0, 187500.0, 187500.0, 187500.0, 187500.0, 187500.0, 0.034, -0.02, 1.012, 192.0, 0.0, 0.0, 0.0, 0.0, 0.0, 0.0, 0.0, 0.0, 0.0, 1.689599247589975E9, 0.0, 2023-07-17 15:07:27.589
89.0, -135.54097837698203, 187500.0, 187500.0, 187500.0, 187500.0, 187500.0, 187500.0, 187500.0, 0.034, -0.02, 1.012, 192.0, 0.0, 0.0, 0.0, 0.0, 0.0, 0.0, 0.0, 0.0, 0.0, 1.6895992475900223E9, 0.0, 2023-07-17 15:07:27.590
90.0, -121.39232413677266, 187500.0, 187500.0, 187500.0, 187500.0, 187500.0, 187500.0, 187500.0, 0.034, -0.02, 1.004, 192.0, 1.0, 16.0, 255.0, 96.0, 31.0, 96.0, 0.0, 0.0, 0.0, 1.6895992475900695E9, 0.0, 2023-07-17 15:07:27.590
91.0, -106.21548965161917, 187500.0, 187500.0, 187500.0, 187500.0, 187500.0, 187500.0, 187500.0, 0.034, -0.02, 1.004, 192.0, 0.0, 0.0, 0.0, 0.0, 0.0, 0.0, 0.0, 0.0, 0.0, 1.689599247590119E9, 0.0, 2023-07-17 15:07:27.590
92.0, -111.62461180980347, 187500.0, 187500.0, 187500.0, 187500.0, 187500.0, 187500.0, 187500.0, 0.034, -0.02, 1.004, 192.0, 0.0, 0.0, 0.0, 0.0, 0.0, 0.0, 0.0, 0.0, 0.0, 1.6895992475901673E9, 0.0, 2023-07-17 15:07:27.590
93.0, -129.4613038851385, 187500.0, 187500.0, 187500.0, 187500.0, 187500.0, 187500.0, 187500.0, 0.034, -0.02, 1.004, 192.0, 0.0, 0.0, 0.0, 0.0, 0.0, 0.0, 0.0, 0.0, 0.0, 1.6895992475902157E9, 0.0, 2023-07-17 15:07:27.590
94.0, -135.4962748880714, 187500.0, 187500.0, 187500.0, 187500.0, 187500.0, 187500.0, 187500.0, 0.034, -0.02, 1.004, 192.0, 0.0, 0.0, 0.0, 0.0, 0.0, 0.0, 0.0, 0.0, 0.0, 1.6895992475902653E9, 0.0, 2023-07-17 15:07:27.590
95.0, -121.07939971439836, 187500.0, 187500.0, 187500.0, 187500.0, 187500.0, 187500.0, 187500.0, 0.034, -0.02, 1.004, 192.0, 0.0, 0.0, 0.0, 0.0, 0.0, 0.0, 0.0, 0.0, 0.0, 1.689599247590323E9, 0.0, 2023-07-17 15:07:27.590
96.0, -105.85786174033424, 187500.0, 187500.0, 187500.0, 187500.0, 187500.0, 187500.0, 187500.0, 0.034, -0.02, 1.004, 192.0, 0.0, 0.0, 0.0, 0.0, 0.0, 0.0, 0.0, 0.0, 0.0, 1.6895992475905595E9, 0.0, 2023-07-17 15:07:27.590
97.0, -111.33403913188448, 187500.0, 187500.0, 187500.0, 187500.0, 187500.0, 187500.0, 187500.0, 0.034, -0.02, 1.004, 192.0, 0.0, 0.0, 0.0, 0.0, 0.0, 0.0, 0.0, 0.0, 0.0, 1.6895992475906153E9, 0.0, 2023-07-17 15:07:27.590
98.0, -129.8189317964234, 187500.0, 187500.0, 187500.0, 187500.0, 187500.0, 187500.0, 187500.0, 0.034, -0.02, 1.004, 192.0, 0.0, 0.0, 0.0, 0.0, 0.0, 0.0, 0.0, 0.0, 0.0, 1.6895992475906715E9, 0.0, 2023-07-17 15:07:27.590
99.0, -135.60803361034795, 187500.0, 187500.0, 187500.0, 187500.0, 187500.0, 187500.0, 187500.0, 0.034, -0.02, 1.004, 192.0, 0.0, 0.0, 0.0, 0.0, 0.0, 0.0, 0.0, 0.0, 0.0, 1.6895992475907252E9, 0.0, 2023-07-17 15:07:27.590
100.0, -120.81117878093467, 187500.0, 187500.0, 187500.0, 187500.0, 187500.0, 187500.0, 187500.0, 0.032, -0.016, 1.002, 192.0, 1.0, 0.0, 255.0, 128.0, 31.0, 80.0, 0.0, 0.0, 0.0, 1.6895992475907784E9, 0.0, 2023-07-17 15:07:27.590
101.0, -105.67904778469179, 187500.0, 187500.0, 187500.0, 187500.0, 187500.0, 187500.0, 187500.0, 0.032, -0.016, 1.002, 192.0, 0.0, 0.0, 0.0, 0.0, 0.0, 0.0, 0.0, 0.0, 0.0, 1.6895992475908363E9, 0.0, 2023-07-17 15:07:27.590
102.0, -111.31168738742917, 187500.0, 187500.0, 187500.0, 187500.0, 187500.0, 187500.0, 187500.0, 0.032, -0.016, 1.002, 192.0, 0.0, 0.0, 0.0, 0.0, 0.0, 0.0, 0.0, 0.0, 0.0, 1.6895992475908935E9, 0.0, 2023-07-17 15:07:27.590
103.0, -129.90833877424464, 187500.0, 187500.0, 187500.0, 187500.0, 187500.0, 187500.0, 187500.0, 0.032, -0.016, 1.002, 192.0, 0.0, 0.0, 0.0, 0.0, 0.0, 0.0, 0.0, 0.0, 0.0, 1.6895992475909476E9, 0.0, 2023-07-17 15:07:27.590
104.0, -135.94330977717755, 187500.0, 187500.0, 187500.0, 187500.0, 187500.0, 187500.0, 187500.0, 0.032, -0.016, 1.002, 192.0, 0.0, 0.0, 0.0, 0.0, 0.0, 0.0, 0.0, 0.0, 0.0, 1.689599247591001E9, 0.0, 2023-07-17 15:07:27.591
105.0, -121.72760030360226, 187500.0, 187500.0, 187500.0, 187500.0, 187500.0, 187500.0, 187500.0, 0.032, -0.016, 1.002, 192.0, 0.0, 0.0, 0.0, 0.0, 0.0, 0.0, 0.0, 0.0, 0.0, 1.6895992480619419E9, 0.0, 2023-07-17 15:07:28.061
106.0, -106.30489662944039, 187500.0, 187500.0, 187500.0, 187500.0, 187500.0, 187500.0, 187500.0, 0.032, -0.016, 1.002, 192.0, 0.0, 0.0, 0.0, 0.0, 0.0, 0.0, 0.0, 0.0, 0.0, 1.6895992480621054E9, 0.0, 2023-07-17 15:07:28.062
107.0, -110.84230075386772, 187500.0, 187500.0, 187500.0, 187500.0, 187500.0, 187500.0, 187500.0, 0.032, -0.016, 1.002, 192.0, 0.0, 0.0, 0.0, 0.0, 0.0, 0.0, 0.0, 0.0, 0.0, 1.6895992480621617E9, 0.0, 2023-07-17 15:07:28.062
108.0, -129.1483794627642, 187500.0, 187500.0, 187500.0, 187500.0, 187500.0, 187500.0, 187500.0, 0.032, -0.016, 1.002, 192.0, 0.0, 0.0, 0.0, 0.0, 0.0, 0.0, 0.0, 0.0, 0.0, 1.6895992480622237E9, 0.0, 2023-07-17 15:07:28.062
109.0, -135.7644958215351, 187500.0, 187500.0, 187500.0, 187500.0, 187500.0, 187500.0, 187500.0, 0.032, -0.016, 1.002, 192.0, 0.0, 0.0, 0.0, 0.0, 0.0, 0.0, 0.0, 0.0, 0.0, 1.689599248062284E9, 0.0, 2023-07-17 15:07:28.062
110.0, -121.43702762568327, 187500.0, 187500.0, 187500.0, 187500.0, 187500.0, 187500.0, 187500.0, 0.034, -0.014, 1.006, 192.0, 1.0, 16.0, 255.0, 144.0, 31.0, 112.0, 0.0, 0.0, 0.0, 1.6895992480623448E9, 0.0, 2023-07-17 15:07:28.062
111.0, -105.81315825142363, 187500.0, 187500.0, 187500.0, 187500.0, 187500.0, 187500.0, 187500.0, 0.034, -0.014, 1.006, 192.0, 0.0, 0.0, 0.0, 0.0, 0.0, 0.0, 0.0, 0.0, 0.0, 1.6895992480627208E9, 0.0, 2023-07-17 15:07:28.062
112.0, -111.31168738742917, 187500.0, 187500.0, 187500.0, 187500.0, 187500.0, 187500.0, 187500.0, 0.034, -0.014, 1.006, 192.0, 0.0, 0.0, 0.0, 0.0, 0.0, 0.0, 0.0, 0.0, 0.0, 1.6895992480628278E9, 0.0, 2023-07-17 15:07:28.062
113.0, -129.90833877424464, 187500.0, 187500.0, 187500.0, 187500.0, 187500.0, 187500.0, 187500.0, 0.034, -0.014, 1.006, 192.0, 0.0, 0.0, 0.0, 0.0, 0.0, 0.0, 0.0, 0.0, 0.0, 1.689599248062898E9, 0.0, 2023-07-17 15:07:28.062
114.0, -136.05506849945408, 187500.0, 187500.0, 187500.0, 187500.0, 187500.0, 187500.0, 187500.0, 0.034, -0.014, 1.006, 192.0, 0.0, 0.0, 0.0, 0.0, 0.0, 0.0, 0.0, 0.0, 0.0, 1.6895992480629537E9, 0.0, 2023-07-17 15:07:28.062
115.0, -121.10175145885367, 187500.0, 187500.0, 187500.0, 187500.0, 187500.0, 187500.0, 187500.0, 0.034, -0.014, 1.006, 192.0, 0.0, 0.0, 0.0, 0.0, 0.0, 0.0, 0.0, 0.0, 0.0, 1.689599248063008E9, 0.0, 2023-07-17 15:07:28.063
116.0, -105.76845476251302, 187500.0, 187500.0, 187500.0, 187500.0, 187500.0, 187500.0, 187500.0, 0.034, -0.014, 1.006, 192.0, 0.0, 0.0, 0.0, 0.0, 0.0, 0.0, 0.0, 0.0, 0.0, 1.689599248063065E9, 0.0, 2023-07-17 15:07:28.063
117.0, -111.42344610970571, 187500.0, 187500.0, 187500.0, 187500.0, 187500.0, 187500.0, 187500.0, 0.034, -0.014, 1.006, 192.0, 0.0, 0.0, 0.0, 0.0, 0.0, 0.0, 0.0, 0.0, 0.0, 1.6895992480631275E9, 0.0, 2023-07-17 15:07:28.063
118.0, -129.66246958523627, 187500.0, 187500.0, 187500.0, 187500.0, 187500.0, 187500.0, 187500.0, 0.034, -0.014, 1.006, 192.0, 0.0, 0.0, 0.0, 0.0, 0.0, 0.0, 0.0, 0.0, 0.0, 1.6895992480631912E9, 0.0, 2023-07-17 15:07:28.063
119.0, -135.36216442133957, 187500.0, 187500.0, 187500.0, 187500.0, 187500.0, 187500.0, 187500.0, 0.028, -0.018000000000000002, 1.01, 192.0, 0.0, 224.0, 255.0, 112.0, 31.0, 144.0, 0.0, 0.0, 0.0, 1.6895992480632544E9, 0.0, 2023-07-17 15:07:28.063
120.0, -120.74412354756875, 187500.0, 187500.0, 187500.0, 187500.0, 187500.0, 187500.0, 187500.0, 0.028, -0.018000000000000002, 1.01, 192.0, 0.0, 0.0, 0.0, 0.0, 0.0, 0.0, 0.0, 0.0, 0.0, 1.689599248063321E9, 0.0, 2023-07-17 15:07:28.063
121.0, -106.08137918488733, 187500.0, 187500.0, 187500.0, 187500.0, 187500.0, 187500.0, 187500.0, 0.028, -0.018000000000000002, 1.01, 192.0, 0.0, 0.0, 0.0, 0.0, 0.0, 0.0, 0.0, 0.0, 0.0, 1.6895992480636065E9, 0.0, 2023-07-17 15:07:28.063
122.0, -110.70819028713588, 187500.0, 187500.0, 187500.0, 187500.0, 187500.0, 187500.0, 187500.0, 0.028, -0.018000000000000002, 1.01, 192.0, 0.0, 0.0, 0.0, 0.0, 0.0, 0.0, 0.0, 0.0, 0.0, 1.6895992480637484E9, 0.0, 2023-07-17 15:07:28.063
123.0, -129.52835911850443, 187500.0, 187500.0, 187500.0, 187500.0, 187500.0, 187500.0, 187500.0, 0.028, -0.018000000000000002, 1.01, 192.0, 0.0, 0.0, 0.0, 0.0, 0.0, 0.0, 0.0, 0.0, 0.0, 1.6895992480638983E9, 0.0, 2023-07-17 15:07:28.063
124.0, -135.56333012143733, 187500.0, 187500.0, 187500.0, 187500.0, 187500.0, 187500.0, 187500.0, 0.028, -0.018000000000000002, 1.01, 192.0, 0.0, 0.0, 0.0, 0.0, 0.0, 0.0, 0.0, 0.0, 0.0, 1.689599248064047E9, 0.0, 2023-07-17 15:07:28.064
125.0, -121.63819332578103, 187500.0, 187500.0, 187500.0, 187500.0, 187500.0, 187500.0, 187500.0, 0.028, -0.018000000000000002, 1.01, 192.0, 0.0, 0.0, 0.0, 0.0, 0.0, 0.0, 0.0, 0.0, 0.0, 1.6895992480641909E9, 0.0, 2023-07-17 15:07:28.064
126.0, -106.28254488498509, 187500.0, 187500.0, 187500.0, 187500.0, 187500.0, 187500.0, 187500.0, 0.028, -0.018000000000000002, 1.01, 192.0, 0.0, 0.0, 0.0, 0.0, 0.0, 0.0, 0.0, 0.0, 0.0, 1.689599248064605E9, 0.0, 2023-07-17 15:07:28.064
127.0, -110.97641122059957, 187500.0, 187500.0, 187500.0, 187500.0, 187500.0, 187500.0, 187500.0, 0.028, -0.018000000000000002, 1.01, 192.0, 0.0, 0.0, 0.0, 0.0, 0.0, 0.0, 0.0, 0.0, 0.0, 1.6895992480646758E9, 0.0, 2023-07-17 15:07:28.064
128.0, -129.61776609632565, 187500.0, 187500.0, 187500.0, 187500.0, 187500.0, 187500.0, 187500.0, 0.028, -0.018000000000000002, 1.01, 192.0, 0.0, 0.0, 0.0, 0.0, 0.0, 0.0, 0.0, 0.0, 0.0, 1.6895992480647368E9, 0.0, 2023-07-17 15:07:28.064
129.0, -136.52445513301555, 187500.0, 187500.0, 187500.0, 187500.0, 187500.0, 187500.0, 187500.0, 0.026000000000000002, -0.018000000000000002, 1.016, 192.0, 0.0, 208.0, 255.0, 112.0, 31.0, 192.0, 0.0, 0.0, 0.0, 1.6895992480648053E9, 0.0, 2023-07-17 15:07:28.064
130.0, -121.5487863479598, 187500.0, 187500.0, 187500.0, 187500.0, 187500.0, 187500.0, 187500.0, 0.026000000000000002, -0.018000000000000002, 1.016, 192.0, 0.0, 0.0, 0.0, 0.0, 0.0, 0.0, 0.0, 0.0, 0.0, 1.6895992480648696E9, 0.0, 2023-07-17 15:07:28.064
131.0, -105.18730940667504, 187500.0, 187500.0, 187500.0, 187500.0, 187500.0, 187500.0, 187500.0, 0.026000000000000002, -0.018000000000000002, 1.016, 192.0, 0.0, 0.0, 0.0, 0.0, 0.0, 0.0, 0.0, 0.0, 0.0, 1.6895992480649216E9, 0.0, 2023-07-17 15:07:28.064
132.0, -110.23880365357444, 187500.0, 187500.0, 187500.0, 187500.0, 187500.0, 187500.0, 187500.0, 0.026000000000000002, -0.018000000000000002, 1.016, 192.0, 0.0, 0.0, 0.0, 0.0, 0.0, 0.0, 0.0, 0.0, 0.0, 1.6895992480649793E9, 0.0, 2023-07-17 15:07:28.064
133.0, -128.94721376266645, 187500.0, 187500.0, 187500.0, 187500.0, 187500.0, 187500.0, 187500.0, 0.026000000000000002, -0.018000000000000002, 1.016, 192.0, 0.0, 0.0, 0.0, 0.0, 0.0, 0.0, 0.0, 0.0, 0.0, 1.6895992480653083E9, 0.0, 2023-07-17 15:07:28.065
134.0, -135.87625454381163, 187500.0, 187500.0, 187500.0, 187500.0, 187500.0, 187500.0, 187500.0, 0.026000000000000002, -0.018000000000000002, 1.016, 192.0, 0.0, 0.0, 0.0, 0.0, 0.0, 0.0, 0.0, 0.0, 0.0, 1.689599248065382E9, 0.0, 2023-07-17 15:07:28.065
135.0, -121.12410320330898, 187500.0, 187500.0, 187500.0, 187500.0, 187500.0, 187500.0, 187500.0, 0.026000000000000002, -0.018000000000000002, 1.016, 192.0, 0.0, 0.0, 0.0, 0.0, 0.0, 0.0, 0.0, 0.0, 0.0, 1.689599248065431E9, 0.0, 2023-07-17 15:07:28.065
136.0, -104.87438498430073, 187500.0, 187500.0, 187500.0, 187500.0, 187500.0, 187500.0, 187500.0, 0.026000000000000002, -0.018000000000000002, 1.016, 192.0, 0.0, 0.0, 0.0, 0.0, 0.0, 0.0, 0.0, 0.0, 0.0, 1.6895992480654774E9, 0.0, 2023-07-17 15:07:28.065
137.0, -110.17174842020852, 187500.0, 187500.0, 187500.0, 187500.0, 187500.0, 187500.0, 187500.0, 0.026000000000000002, -0.018000000000000002, 1.016, 192.0, 0.0, 0.0, 0.0, 0.0, 0.0, 0.0, 0.0, 0.0, 0.0, 1.6895992480655303E9, 0.0, 2023-07-17 15:07:28.065
138.0, -129.7518765630575, 187500.0, 187500.0, 187500.0, 187500.0, 187500.0, 187500.0, 187500.0, 0.026000000000000002, -0.018000000000000002, 1.016, 192.0, 0.0, 0.0, 0.0, 0.0, 0.0, 0.0, 0.0, 0.0, 0.0, 1.6895992480655773E9, 0.0, 2023-07-17 15:07:28.065
139.0, -136.50210338856024, 187500.0, 187500.0, 187500.0, 187500.0, 187500.0, 187500.0, 187500.0, 0.032, -0.02, 1.008, 192.0, 1.0, 0.0, 255.0, 96.0, 31.0, 128.0, 0.0, 0.0, 0.0, 1.6895992480656264E9, 0.0, 2023-07-17 15:07:28.065
140.0, -122.06287647043187, 187500.0, 187500.0, 187500.0, 187500.0, 187500.0, 187500.0, 187500.0, 0.032, -0.02, 1.008, 192.0, 0.0, 0.0, 0.0, 0.0, 0.0, 0.0, 0.0, 0.0, 0.0, 1.6895992480656855E9, 0.0, 2023-07-17 15:07:28.065
141.0, -105.65669604023648, 187500.0, 187500.0, 187500.0, 187500.0, 187500.0, 187500.0, 187500.0, 0.032, -0.02, 1.008, 192.0, 0.0, 0.0, 0.0, 0.0, 0.0, 0.0, 0.0, 0.0, 0.0, 1.689599248065734E9, 0.0, 2023-07-17 15:07:28.065
142.0, -110.28350714248505, 187500.0, 187500.0, 187500.0, 187500.0, 187500.0, 187500.0, 187500.0, 0.032, -0.02, 1.008, 192.0, 0.0, 0.0, 0.0, 0.0, 0.0, 0.0, 0.0, 0.0, 0.0, 1.6895992480659208E9, 0.0, 2023-07-17 15:07:28.065
143.0, -129.01426899603237, 187500.0, 187500.0, 187500.0, 187500.0, 187500.0, 187500.0, 187500.0, 0.032, -0.02, 1.008, 192.0, 0.0, 0.0, 0.0, 0.0, 0.0, 0.0, 0.0, 0.0, 0.0, 1.68959924806597E9, 0.0, 2023-07-17 15:07:28.065
144.0, -136.32328943291776, 187500.0, 187500.0, 187500.0, 187500.0, 187500.0, 187500.0, 187500.0, 0.032, -0.02, 1.008, 192.0, 0.0, 0.0, 0.0, 0.0, 0.0, 0.0, 0.0, 0.0, 0.0, 1.6895992480660188E9, 0.0, 2023-07-17 15:07:28.066
145.0, -122.39815263726148, 187500.0, 187500.0, 187500.0, 187500.0, 187500.0, 187500.0, 187500.0, 0.032, -0.02, 1.008, 192.0, 0.0, 0.0, 0.0, 0.0, 0.0, 0.0, 0.0, 0.0, 0.0, 1.6895992480660677E9, 0.0, 2023-07-17 15:07:28.066
146.0, -105.85786174033424, 187500.0, 187500.0, 187500.0, 187500.0, 187500.0, 187500.0, 187500.0, 0.032, -0.02, 1.008, 192.0, 0.0, 0.0, 0.0, 0.0, 0.0, 0.0, 0.0, 0.0, 0.0, 1.6895992480661173E9, 0.0, 2023-07-17 15:07:28.066
147.0, -110.08234144238729, 187500.0, 187500.0, 187500.0, 187500.0, 187500.0, 187500.0, 187500.0, 0.032, -0.02, 1.008, 192.0, 0.0, 0.0, 0.0, 0.0, 0.0, 0.0, 0.0, 0.0, 0.0, 1.6895992480661623E9, 0.0, 2023-07-17 15:07:28.066
148.0, -128.94721376266645, 187500.0, 187500.0, 187500.0, 187500.0, 187500.0, 187500.0, 187500.0, 0.032, -0.02, 1.008, 192.0, 0.0, 0.0, 0.0, 0.0, 0.0, 0.0, 0.0, 0.0, 0.0, 1.689599248066213E9, 0.0, 2023-07-17 15:07:28.066
149.0, -136.43504815519432, 187500.0, 187500.0, 187500.0, 187500.0, 187500.0, 187500.0, 187500.0, 0.03, -0.02, 1.006, 192.0, 0.0, 240.0, 255.0, 96.0, 31.0, 112.0, 0.0, 0.0, 0.0, 1.6895992480662584E9, 0.0, 2023-07-17 15:07:28.066
150.0, -122.50991135953801, 187500.0, 187500.0, 187500.0, 187500.0, 187500.0, 187500.0, 187500.0, 0.03, -0.02, 1.006, 192.0, 0.0, 0.0, 0.0, 0.0, 0.0, 0.0, 0.0, 0.0, 0.0, 1.6895992480663106E9, 0.0, 2023-07-17 15:07:28.066
151.0, -105.56728906241526, 187500.0, 187500.0, 187500.0, 187500.0, 187500.0, 187500.0, 187500.0, 0.03, -0.02, 1.006, 192.0, 0.0, 0.0, 0.0, 0.0, 0.0, 0.0, 0.0, 0.0, 0.0, 1.6895992480663588E9, 0.0, 2023-07-17 15:07:28.066
152.0, -110.39526586476158, 187500.0, 187500.0, 187500.0, 187500.0, 187500.0, 187500.0, 187500.0, 0.03, -0.02, 1.006, 192.0, 0.0, 0.0, 0.0, 0.0, 0.0, 0.0, 0.0, 0.0, 0.0, 1.689599248066414E9, 0.0, 2023-07-17 15:07:28.066
153.0, -129.39424865177259, 187500.0, 187500.0, 187500.0, 187500.0, 187500.0, 187500.0, 187500.0, 0.03, -0.02, 1.006, 192.0, 0.0, 0.0, 0.0, 0.0, 0.0, 0.0, 0.0, 0.0, 0.0, 1.6895992480664606E9, 0.0, 2023-07-17 15:07:28.066
154.0, -136.43504815519432, 187500.0, 187500.0, 187500.0, 187500.0, 187500.0, 187500.0, 187500.0, 0.03, -0.02, 1.006, 192.0, 0.0, 0.0, 0.0, 0.0, 0.0, 0.0, 0.0, 0.0, 0.0, 1.6895992480665052E9, 0.0, 2023-07-17 15:07:28.066
155.0, -122.42050438171678, 187500.0, 187500.0, 187500.0, 187500.0, 187500.0, 187500.0, 187500.0, 0.03, -0.02, 1.006, 192.0, 0.0, 0.0, 0.0, 0.0, 0.0, 0.0, 0.0, 0.0, 0.0, 1.6895992480665476E9, 0.0, 2023-07-17 15:07:28.066
156.0, -105.63434429578118, 187500.0, 187500.0, 187500.0, 187500.0, 187500.0, 187500.0, 187500.0, 0.03, -0.02, 1.006, 192.0, 0.0, 0.0, 0.0, 0.0, 0.0, 0.0, 0.0, 0.0, 0.0, 1.6895992480665972E9, 0.0, 2023-07-17 15:07:28.066
157.0, -109.188271664175, 187500.0, 187500.0, 187500.0, 187500.0, 187500.0, 187500.0, 187500.0, 0.03, -0.02, 1.006, 192.0, 0.0, 0.0, 0.0, 0.0, 0.0, 0.0, 0.0, 0.0, 0.0, 1.6895992480667565E9, 0.0, 2023-07-17 15:07:28.066
158.0, -128.768399807024, 187500.0, 187500.0, 187500.0, 187500.0, 187500.0, 187500.0, 187500.0, 0.03, -0.02, 1.006, 192.0, 0.0, 0.0, 0.0, 0.0, 0.0, 0.0, 0.0, 0.0, 0.0, 1.6895992480668051E9, 0.0, 2023-07-17 15:07:28.066
159.0, -136.90443478875576, 187500.0, 187500.0, 187500.0, 187500.0, 187500.0, 187500.0, 187500.0, 0.036000000000000004, -0.018000000000000002, 1.002, 192.0, 1.0, 32.0, 255.0, 112.0, 31.0, 80.0, 0.0, 0.0, 0.0, 1.689599248066854E9, 0.0, 2023-07-17 15:07:28.066
160.0, -122.64402182626985, 187500.0, 187500.0, 187500.0, 187500.0, 187500.0, 187500.0, 187500.0, 0.036000000000000004, -0.018000000000000002, 1.002, 192.0, 0.0, 0.0, 0.0, 0.0, 0.0, 0.0, 0.0, 0.0, 0.0, 1.689599248066906E9, 0.0, 2023-07-17 15:07:28.066
161.0, -105.52258557350464, 187500.0, 187500.0, 187500.0, 187500.0, 187500.0, 187500.0, 187500.0, 0.036000000000000004, -0.018000000000000002, 1.002, 192.0, 0.0, 0.0, 0.0, 0.0, 0.0, 0.0, 0.0, 0.0, 0.0, 1.689599248066955E9, 0.0, 2023-07-17 15:07:28.066
162.0, -109.70236178664706, 187500.0, 187500.0, 187500.0, 187500.0, 187500.0, 187500.0, 187500.0, 0.036000000000000004, -0.018000000000000002, 1.002, 192.0, 0.0, 0.0, 0.0, 0.0, 0.0, 0.0, 0.0, 0.0, 0.0, 1.6895992480670052E9, 0.0, 2023-07-17 15:07:28.067
163.0, -129.26013818504074, 187500.0, 187500.0, 187500.0, 187500.0, 187500.0, 187500.0, 187500.0, 0.036000000000000004, -0.018000000000000002, 1.002, 192.0, 0.0, 0.0, 0.0, 0.0, 0.0, 0.0, 0.0, 0.0, 0.0, 1.689599248067052E9, 0.0, 2023-07-17 15:07:28.067
164.0, -136.81502781093454, 187500.0, 187500.0, 187500.0, 187500.0, 187500.0, 187500.0, 187500.0, 0.036000000000000004, -0.018000000000000002, 1.002, 192.0, 0.0, 0.0, 0.0, 0.0, 0.0, 0.0, 0.0, 0.0, 0.0, 1.6895992480670989E9, 0.0, 2023-07-17 15:07:28.067
165.0, -121.72760030360226, 187500.0, 187500.0, 187500.0, 187500.0, 187500.0, 187500.0, 187500.0, 0.036000000000000004, -0.018000000000000002, 1.002, 192.0, 0.0, 0.0, 0.0, 0.0, 0.0, 0.0, 0.0, 0.0, 0.0, 1.6895992480671449E9, 0.0, 2023-07-17 15:07:28.067
166.0, -106.14843441825325, 187500.0, 187500.0, 187500.0, 187500.0, 187500.0, 187500.0, 187500.0, 0.036000000000000004, -0.018000000000000002, 1.002, 192.0, 0.0, 0.0, 0.0, 0.0, 0.0, 0.0, 0.0, 0.0, 0.0, 1.6895992480671947E9, 0.0, 2023-07-17 15:07:28.067
167.0, -110.30585888694036, 187500.0, 187500.0, 187500.0, 187500.0, 187500.0, 187500.0, 187500.0, 0.036000000000000004, -0.018000000000000002, 1.002, 192.0, 0.0, 0.0, 0.0, 0.0, 0.0, 0.0, 0.0, 0.0, 0.0, 1.6895992480672498E9, 0.0, 2023-07-17 15:07:28.067
168.0, -128.2096061956413, 187500.0, 187500.0, 187500.0, 187500.0, 187500.0, 187500.0, 187500.0, 0.036000000000000004, -0.018000000000000002, 1.002, 192.0, 0.0, 0.0, 0.0, 0.0, 0.0, 0.0, 0.0, 0.0, 0.0, 1.6895992480673025E9, 0.0, 2023-07-17 15:07:28.067
169.0, -135.85390279935632, 187500.0, 187500.0, 187500.0, 187500.0, 187500.0, 187500.0, 187500.0, 0.036000000000000004, -0.014, 1.002, 192.0, 1.0, 32.0, 255.0, 144.0, 31.0, 80.0, 0.0, 0.0, 0.0, 1.6895992480673652E9, 0.0, 2023-07-17 15:07:28.067
170.0, -122.30874565944025, 187500.0, 187500.0, 187500.0, 187500.0, 187500.0, 187500.0, 187500.0, 0.036000000000000004, -0.014, 1.002, 192.0, 0.0, 0.0, 0.0, 0.0, 0.0, 0.0, 0.0, 0.0, 0.0, 1.6895992480674317E9, 0.0, 2023-07-17 15:07:28.067
171.0, -105.65669604023648, 187500.0, 187500.0, 187500.0, 187500.0, 187500.0, 187500.0, 187500.0, 0.036000000000000004, -0.014, 1.002, 192.0, 0.0, 0.0, 0.0, 0.0, 0.0, 0.0, 0.0, 0.0, 0.0, 1.6895992480674913E9, 0.0, 2023-07-17 15:07:28.067
172.0, -109.79176876446829, 187500.0, 187500.0, 187500.0, 187500.0, 187500.0, 187500.0, 187500.0, 0.036000000000000004, -0.014, 1.002, 192.0, 0.0, 0.0, 0.0, 0.0, 0.0, 0.0, 0.0, 0.0, 0.0, 1.6895992480677311E9, 0.0, 2023-07-17 15:07:28.067
173.0, -128.8131032959346, 187500.0, 187500.0, 187500.0, 187500.0, 187500.0, 187500.0, 187500.0, 0.036000000000000004, -0.014, 1.002, 192.0, 0.0, 0.0, 0.0, 0.0, 0.0, 0.0, 0.0, 0.0, 0.0, 1.68959924806779E9, 0.0, 2023-07-17 15:07:28.067
174.0, -137.15030397776414, 187500.0, 187500.0, 187500.0, 187500.0, 187500.0, 187500.0, 187500.0, 0.036000000000000004, -0.014, 1.002, 192.0, 0.0, 0.0, 0.0, 0.0, 0.0, 0.0, 0.0, 0.0, 0.0, 1.6895992480678432E9, 0.0, 2023-07-17 15:07:28.067
175.0, -122.55461484844862, 187500.0, 187500.0, 187500.0, 187500.0, 187500.0, 187500.0, 187500.0, 0.036000000000000004, -0.014, 1.002, 192.0, 0.0, 0.0, 0.0, 0.0, 0.0, 0.0, 0.0, 0.0, 0.0, 1.6895992480678945E9, 0.0, 2023-07-17 15:07:28.067
176.0, -105.47788208459403, 187500.0, 187500.0, 187500.0, 187500.0, 187500.0, 187500.0, 187500.0, 0.036000000000000004, -0.014, 1.002, 192.0, 0.0, 0.0, 0.0, 0.0, 0.0, 0.0, 0.0, 0.0, 0.0, 1.6895992480679479E9, 0.0, 2023-07-17 15:07:28.067
177.0, -109.34473387536215, 187500.0, 187500.0, 187500.0, 187500.0, 187500.0, 187500.0, 187500.0, 0.036000000000000004, -0.014, 1.002, 192.0, 0.0, 0.0, 0.0, 0.0, 0.0, 0.0, 0.0, 0.0, 0.0, 1.6895992480679998E9, 0.0, 2023-07-17 15:07:28.067
178.0, -128.32136491791783, 187500.0, 187500.0, 187500.0, 187500.0, 187500.0, 187500.0, 187500.0, 0.036000000000000004, -0.014, 1.002, 192.0, 0.0, 0.0, 0.0, 0.0, 0.0, 0.0, 0.0, 0.0, 0.0, 1.689599248068052E9, 0.0, 2023-07-17 15:07:28.068
179.0, -136.3903446662837, 187500.0, 187500.0, 187500.0, 187500.0, 187500.0, 187500.0, 187500.0, 0.032, -0.014, 1.002, 192.0, 1.0, 0.0, 255.0, 144.0, 31.0, 80.0, 0.0, 0.0, 0.0, 1.6895992480681033E9, 0.0, 2023-07-17 15:07:28.068
180.0, -122.28639391498494, 187500.0, 187500.0, 187500.0, 187500.0, 187500.0, 187500.0, 187500.0, 0.032, -0.014, 1.002, 192.0, 0.0, 0.0, 0.0, 0.0, 0.0, 0.0, 0.0, 0.0, 0.0, 1.6895992480681584E9, 0.0, 2023-07-17 15:07:28.068
181.0, -105.47788208459403, 187500.0, 187500.0, 187500.0, 187500.0, 187500.0, 187500.0, 187500.0, 0.032, -0.014, 1.002, 192.0, 0.0, 0.0, 0.0, 0.0, 0.0, 0.0, 0.0, 0.0, 0.0, 1.689599248068212E9, 0.0, 2023-07-17 15:07:28.068
182.0, -108.78594026397947, 187500.0, 187500.0, 187500.0, 187500.0, 187500.0, 187500.0, 187500.0, 0.032, -0.014, 1.002, 192.0, 0.0, 0.0, 0.0, 0.0, 0.0, 0.0, 0.0, 0.0, 0.0, 1.6895992480682666E9, 0.0, 2023-07-17 15:07:28.068
183.0, -128.61193759583685, 187500.0, 187500.0, 187500.0, 187500.0, 187500.0, 187500.0, 187500.0, 0.032, -0.014, 1.002, 192.0, 0.0, 0.0, 0.0, 0.0, 0.0, 0.0, 0.0, 0.0, 0.0, 1.6895992480683196E9, 0.0, 2023-07-17 15:07:28.068
184.0, -136.88208304430046, 187500.0, 187500.0, 187500.0, 187500.0, 187500.0, 187500.0, 187500.0, 0.032, -0.014, 1.002, 192.0, 0.0, 0.0, 0.0, 0.0, 0.0, 0.0, 0.0, 0.0, 0.0, 1.6895992480684135E9, 0.0, 2023-07-17 15:07:28.068
185.0, -122.64402182626985, 187500.0, 187500.0, 187500.0, 187500.0, 187500.0, 187500.0, 187500.0, 0.032, -0.014, 1.002, 192.0, 0.0, 0.0, 0.0, 0.0, 0.0, 0.0, 0.0, 0.0, 0.0, 1.6895992480685303E9, 0.0, 2023-07-17 15:07:28.068
186.0, -105.67904778469179, 187500.0, 187500.0, 187500.0, 187500.0, 187500.0, 187500.0, 187500.0, 0.032, -0.014, 1.002, 192.0, 0.0, 0.0, 0.0, 0.0, 0.0, 0.0, 0.0, 0.0, 0.0, 1.6895992480686011E9, 0.0, 2023-07-17 15:07:28.068
187.0, -108.94240247516662, 187500.0, 187500.0, 187500.0, 187500.0, 187500.0, 187500.0, 187500.0, 0.032, -0.014, 1.002, 192.0, 0.0, 0.0, 0.0, 0.0, 0.0, 0.0, 0.0, 0.0, 0.0, 1.6895992480689795E9, 0.0, 2023-07-17 15:07:28.068
188.0, -127.98608875108825, 187500.0, 187500.0, 187500.0, 187500.0, 187500.0, 187500.0, 187500.0, 0.032, -0.014, 1.002, 192.0, 0.0, 0.0, 0.0, 0.0, 0.0, 0.0, 0.0, 0.0, 0.0, 1.6895992480690455E9, 0.0, 2023-07-17 15:07:28.069
189.0, -136.05506849945408, 187500.0, 187500.0, 187500.0, 187500.0, 187500.0, 187500.0, 187500.0, 0.034, -0.018000000000000002, 1.004, 192.0, 1.0, 16.0, 255.0, 112.0, 31.0, 96.0, 0.0, 0.0, 0.0, 1.6895992480691E9, 0.0, 2023-07-17 15:07:28.069
190.0, -121.97346949261065, 187500.0, 187500.0, 187500.0, 187500.0, 187500.0, 187500.0, 187500.0, 0.034, -0.018000000000000002, 1.004, 192.0, 0.0, 0.0, 0.0, 0.0, 0.0, 0.0, 0.0, 0.0, 0.0, 1.6895992480691624E9, 0.0, 2023-07-17 15:07:28.069
191.0, -105.29906812895157, 187500.0, 187500.0, 187500.0, 187500.0, 187500.0, 187500.0, 187500.0, 0.034, -0.018000000000000002, 1.004, 192.0, 0.0, 0.0, 0.0, 0.0, 0.0, 0.0, 0.0, 0.0, 0.0, 1.689599248069218E9, 0.0, 2023-07-17 15:07:28.069
192.0, -109.23297515308562, 187500.0, 187500.0, 187500.0, 187500.0, 187500.0, 187500.0, 187500.0, 0.034, -0.018000000000000002, 1.004, 192.0, 0.0, 0.0, 0.0, 0.0, 0.0, 0.0, 0.0, 0.0, 0.0, 1.6895992480692744E9, 0.0, 2023-07-17 15:07:28.069
193.0, -128.27666142900722, 187500.0, 187500.0, 187500.0, 187500.0, 187500.0, 187500.0, 187500.0, 0.034, -0.018000000000000002, 1.004, 192.0, 0.0, 0.0, 0.0, 0.0, 0.0, 0.0, 0.0, 0.0, 0.0, 1.689599248069324E9, 0.0, 2023-07-17 15:07:28.069
194.0, -136.41269641073902, 187500.0, 187500.0, 187500.0, 187500.0, 187500.0, 187500.0, 187500.0, 0.034, -0.018000000000000002, 1.004, 192.0, 0.0, 0.0, 0.0, 0.0, 0.0, 0.0, 0.0, 0.0, 0.0, 1.689599248069409E9, 0.0, 2023-07-17 15:07:28.069
195.0, -122.19698693716371, 187500.0, 187500.0, 187500.0, 187500.0, 187500.0, 187500.0, 187500.0, 0.034, -0.018000000000000002, 1.004, 192.0, 0.0, 0.0, 0.0, 0.0, 0.0, 0.0, 0.0, 0.0, 0.0, 1.689599248069466E9, 0.0, 2023-07-17 15:07:28.069
196.0, -105.67904778469179, 187500.0, 187500.0, 187500.0, 187500.0, 187500.0, 187500.0, 187500.0, 0.034, -0.018000000000000002, 1.004, 192.0, 0.0, 0.0, 0.0, 0.0, 0.0, 0.0, 0.0, 0.0, 0.0, 1.6895992480695176E9, 0.0, 2023-07-17 15:07:28.069
197.0, -109.21062340863031, 187500.0, 187500.0, 187500.0, 187500.0, 187500.0, 187500.0, 187500.0, 0.034, -0.018000000000000002, 1.004, 192.0, 0.0, 0.0, 0.0, 0.0, 0.0, 0.0, 0.0, 0.0, 0.0, 1.6895992480695784E9, 0.0, 2023-07-17 15:07:28.069
198.0, -127.94138526217763, 187500.0, 187500.0, 187500.0, 187500.0, 187500.0, 187500.0, 187500.0, 0.034, -0.018000000000000002, 1.004, 192.0, 0.0, 0.0, 0.0, 0.0, 0.0, 0.0, 0.0, 0.0, 0.0, 1.6895992480696385E9, 0.0, 2023-07-17 15:07:28.069
199.0, -136.47975164410494, 187500.0, 187500.0, 187500.0, 187500.0, 187500.0, 187500.0, 187500.0, 0.034, -0.02, 1.004, 192.0, 1.0, 16.0, 255.0, 96.0, 31.0, 96.0, 0.0, 0.0, 0.0, 1.6895992480697002E9, 0.0, 2023-07-17 15:07:28.069
200.0, -123.06870497092069, 187500.0, 187500.0, 187500.0, 187500.0, 187500.0, 187500.0, 187500.0, 0.034, -0.02, 1.004, 192.0, 0.0, 0.0, 0.0, 0.0, 0.0, 0.0, 0.0, 0.0, 0.0, 1.6895992480697596E9, 0.0, 2023-07-17 15:07:28.069
201.0, -105.83550999587894, 187500.0, 187500.0, 187500.0, 187500.0, 187500.0, 187500.0, 187500.0, 0.034, -0.02, 1.004, 192.0, 0.0, 0.0, 0.0, 0.0, 0.0, 0.0, 0.0, 0.0, 0.0, 1.689599248069816E9, 0.0, 2023-07-17 15:07:28.069
202.0, -109.90352748674482, 187500.0, 187500.0, 187500.0, 187500.0, 187500.0, 187500.0, 187500.0, 0.034, -0.02, 1.004, 192.0, 0.0, 0.0, 0.0, 0.0, 0.0, 0.0, 0.0, 0.0, 0.0, 1.689599248069874E9, 0.0, 2023-07-17 15:07:28.069
203.0, -129.01426899603237, 187500.0, 187500.0, 187500.0, 187500.0, 187500.0, 187500.0, 187500.0, 0.034, -0.02, 1.004, 192.0, 0.0, 0.0, 0.0, 0.0, 0.0, 0.0, 0.0, 0.0, 0.0, 1.6895992480702174E9, 0.0, 2023-07-17 15:07:28.070
204.0, -137.28441444449598, 187500.0, 187500.0, 187500.0, 187500.0, 187500.0, 187500.0, 187500.0, 0.034, -0.02, 1.004, 192.0, 0.0, 0.0, 0.0, 0.0, 0.0, 0.0, 0.0, 0.0, 0.0, 1.6895992480702815E9, 0.0, 2023-07-17 15:07:28.070
205.0, -122.68872531518046, 187500.0, 187500.0, 187500.0, 187500.0, 187500.0, 187500.0, 187500.0, 0.034, -0.02, 1.004, 192.0, 0.0, 0.0, 0.0, 0.0, 0.0, 0.0, 0.0, 0.0, 0.0, 1.689599248070342E9, 0.0, 2023-07-17 15:07:28.070
206.0, -105.63434429578118, 187500.0, 187500.0, 187500.0, 187500.0, 187500.0, 187500.0, 187500.0, 0.034, -0.02, 1.004, 192.0, 0.0, 0.0, 0.0, 0.0, 0.0, 0.0, 0.0, 0.0, 0.0, 1.6895992480703974E9, 0.0, 2023-07-17 15:07:28.070
207.0, -109.68001004219175, 187500.0, 187500.0, 187500.0, 187500.0, 187500.0, 187500.0, 187500.0, 0.034, -0.02, 1.004, 192.0, 0.0, 0.0, 0.0, 0.0, 0.0, 0.0, 0.0, 0.0, 0.0, 1.6895992480704527E9, 0.0, 2023-07-17 15:07:28.070
208.0, -128.05314398445415, 187500.0, 187500.0, 187500.0, 187500.0, 187500.0, 187500.0, 187500.0, 0.034, -0.02, 1.004, 192.0, 0.0, 0.0, 0.0, 0.0, 0.0, 0.0, 0.0, 0.0, 0.0, 1.68959924807051E9, 0.0, 2023-07-17 15:07:28.070
209.0, -136.27858594400715, 187500.0, 187500.0, 187500.0, 187500.0, 187500.0, 187500.0, 187500.0, 0.038, -0.018000000000000002, 1.008, 192.0, 1.0, 48.0, 255.0, 112.0, 31.0, 128.0, 0.0, 0.0, 0.0, 1.6895992480705693E9, 0.0, 2023-07-17 15:07:28.070
210.0, -122.35344914835086, 187500.0, 187500.0, 187500.0, 187500.0, 187500.0, 187500.0, 187500.0, 0.038, -0.018000000000000002, 1.008, 192.0, 0.0, 0.0, 0.0, 0.0, 0.0, 0.0, 0.0, 0.0, 0.0, 1.689599248070618E9, 0.0, 2023-07-17 15:07:28.070
211.0, -105.7013995291471, 187500.0, 187500.0, 187500.0, 187500.0, 187500.0, 187500.0, 187500.0, 0.038, -0.018000000000000002, 1.008, 192.0, 0.0, 0.0, 0.0, 0.0, 0.0, 0.0, 0.0, 0.0, 0.0, 1.6895992480706658E9, 0.0, 2023-07-17 15:07:28.070
212.0, -108.58477456388171, 187500.0, 187500.0, 187500.0, 187500.0, 187500.0, 187500.0, 187500.0, 0.038, -0.018000000000000002, 1.008, 192.0, 0.0, 0.0, 0.0, 0.0, 0.0, 0.0, 0.0, 0.0, 0.0, 1.6895992480707147E9, 0.0, 2023-07-17 15:07:28.070
213.0, -128.1649027067307, 187500.0, 187500.0, 187500.0, 187500.0, 187500.0, 187500.0, 187500.0, 0.038, -0.018000000000000002, 1.008, 192.0, 0.0, 0.0, 0.0, 0.0, 0.0, 0.0, 0.0, 0.0, 0.0, 1.6895992480707629E9, 0.0, 2023-07-17 15:07:28.070
214.0, -137.12795223330883, 187500.0, 187500.0, 187500.0, 187500.0, 187500.0, 187500.0, 187500.0, 0.038, -0.018000000000000002, 1.008, 192.0, 0.0, 0.0, 0.0, 0.0, 0.0, 0.0, 0.0, 0.0, 0.0, 1.689599248070812E9, 0.0, 2023-07-17 15:07:28.070
215.0, -122.73342880409108, 187500.0, 187500.0, 187500.0, 187500.0, 187500.0, 187500.0, 187500.0, 0.038, -0.018000000000000002, 1.008, 192.0, 0.0, 0.0, 0.0, 0.0, 0.0, 0.0, 0.0, 0.0, 0.0, 1.689599248070862E9, 0.0, 2023-07-17 15:07:28.070
216.0, -105.9919722070661, 187500.0, 187500.0, 187500.0, 187500.0, 187500.0, 187500.0, 187500.0, 0.038, -0.018000000000000002, 1.008, 192.0, 0.0, 0.0, 0.0, 0.0, 0.0, 0.0, 0.0, 0.0, 0.0, 1.689599248070914E9, 0.0, 2023-07-17 15:07:28.070
217.0, -108.60712630833702, 187500.0, 187500.0, 187500.0, 187500.0, 187500.0, 187500.0, 187500.0, 0.038, -0.018000000000000002, 1.008, 192.0, 0.0, 0.0, 0.0, 0.0, 0.0, 0.0, 0.0, 0.0, 0.0, 1.6895992480709665E9, 0.0, 2023-07-17 15:07:28.070
218.0, -127.98608875108825, 187500.0, 187500.0, 187500.0, 187500.0, 187500.0, 187500.0, 187500.0, 0.038, -0.018000000000000002, 1.008, 192.0, 0.0, 0.0, 0.0, 0.0, 0.0, 0.0, 0.0, 0.0, 0.0, 1.6895992480710938E9, 0.0, 2023-07-17 15:07:28.071
219.0, -136.7256208331133, 187500.0, 187500.0, 187500.0, 187500.0, 187500.0, 187500.0, 187500.0, 0.032, -0.016, 1.004, 192.0, 1.0, 0.0, 255.0, 128.0, 31.0, 96.0, 0.0, 0.0, 0.0, 1.6895992480711443E9, 0.0, 2023-07-17 15:07:28.071
220.0, -123.13576020428661, 187500.0, 187500.0, 187500.0, 187500.0, 187500.0, 187500.0, 187500.0, 0.032, -0.016, 1.004, 192.0, 0.0, 0.0, 0.0, 0.0, 0.0, 0.0, 0.0, 0.0, 0.0, 1.6895992480711968E9, 0.0, 2023-07-17 15:07:28.071
221.0, -105.79080650696832, 187500.0, 187500.0, 187500.0, 187500.0, 187500.0, 187500.0, 187500.0, 0.032, -0.016, 1.004, 192.0, 0.0, 0.0, 0.0, 0.0, 0.0, 0.0, 0.0, 0.0, 0.0, 1.689599248071248E9, 0.0, 2023-07-17 15:07:28.071
222.0, -108.58477456388171, 187500.0, 187500.0, 187500.0, 187500.0, 187500.0, 187500.0, 187500.0, 0.032, -0.016, 1.004, 192.0, 0.0, 0.0, 0.0, 0.0, 0.0, 0.0, 0.0, 0.0, 0.0, 1.6895992480712955E9, 0.0, 2023-07-17 15:07:28.071
223.0, -127.74021956207986, 187500.0, 187500.0, 187500.0, 187500.0, 187500.0, 187500.0, 187500.0, 0.032, -0.016, 1.004, 192.0, 0.0, 0.0, 0.0, 0.0, 0.0, 0.0, 0.0, 0.0, 0.0, 1.6895992480713437E9, 0.0, 2023-07-17 15:07:28.071
224.0, -136.83737955538984, 187500.0, 187500.0, 187500.0, 187500.0, 187500.0, 187500.0, 187500.0, 0.032, -0.016, 1.004, 192.0, 0.0, 0.0, 0.0, 0.0, 0.0, 0.0, 0.0, 0.0, 0.0, 1.6895992480718985E9, 0.0, 2023-07-17 15:07:28.071
225.0, -123.24751892656315, 187500.0, 187500.0, 187500.0, 187500.0, 187500.0, 187500.0, 187500.0, 0.032, -0.016, 1.004, 192.0, 0.0, 0.0, 0.0, 0.0, 0.0, 0.0, 0.0, 0.0, 0.0, 1.6895992485421293E9, 0.0, 2023-07-17 15:07:28.542
226.0, -105.81315825142363, 187500.0, 187500.0, 187500.0, 187500.0, 187500.0, 187500.0, 187500.0, 0.032, -0.016, 1.004, 192.0, 0.0, 0.0, 0.0, 0.0, 0.0, 0.0, 0.0, 0.0, 0.0, 1.6895992485422623E9, 0.0, 2023-07-17 15:07:28.542
227.0, -108.47301584160518, 187500.0, 187500.0, 187500.0, 187500.0, 187500.0, 187500.0, 187500.0, 0.032, -0.016, 1.004, 192.0, 0.0, 0.0, 0.0, 0.0, 0.0, 0.0, 0.0, 0.0, 0.0, 1.6895992485423503E9, 0.0, 2023-07-17 15:07:28.542
228.0, -127.11437071733127, 187500.0, 187500.0, 187500.0, 187500.0, 187500.0, 187500.0, 187500.0, 0.032, -0.016, 1.004, 192.0, 0.0, 0.0, 0.0, 0.0, 0.0, 0.0, 0.0, 0.0, 0.0, 1.689599248542404E9, 0.0, 2023-07-17 15:07:28.542
229.0, -136.61386211083678, 187500.0, 187500.0, 187500.0, 187500.0, 187500.0, 187500.0, 187500.0, 0.03, -0.018000000000000002, 0.998, 192.0, 0.0, 240.0, 255.0, 112.0, 31.0, 48.0, 0.0, 0.0, 0.0, 1.689599248542453E9, 0.0, 2023-07-17 15:07:28.542
230.0, -123.85101602685643, 187500.0, 187500.0, 187500.0, 187500.0, 187500.0, 187500.0, 187500.0, 0.03, -0.018000000000000002, 0.998, 192.0, 0.0, 0.0, 0.0, 0.0, 0.0, 0.0, 0.0, 0.0, 0.0, 1.689599248542512E9, 0.0, 2023-07-17 15:07:28.542
231.0, -106.70722802963591, 187500.0, 187500.0, 187500.0, 187500.0, 187500.0, 187500.0, 187500.0, 0.03, -0.018000000000000002, 0.998, 192.0, 0.0, 0.0, 0.0, 0.0, 0.0, 0.0, 0.0, 0.0, 0.0, 1.6895992485425575E9, 0.0, 2023-07-17 15:07:28.542
232.0, -108.98710596407724, 187500.0, 187500.0, 187500.0, 187500.0, 187500.0, 187500.0, 187500.0, 0.03, -0.018000000000000002, 0.998, 192.0, 0.0, 0.0, 0.0, 0.0, 0.0, 0.0, 0.0, 0.0, 0.0, 1.6895992485426023E9, 0.0, 2023-07-17 15:07:28.542
233.0, -127.62846083980332, 187500.0, 187500.0, 187500.0, 187500.0, 187500.0, 187500.0, 187500.0, 0.03, -0.018000000000000002, 0.998, 192.0, 0.0, 0.0, 0.0, 0.0, 0.0, 0.0, 0.0, 0.0, 0.0, 1.689599248542739E9, 0.0, 2023-07-17 15:07:28.542
234.0, -136.43504815519432, 187500.0, 187500.0, 187500.0, 187500.0, 187500.0, 187500.0, 187500.0, 0.03, -0.018000000000000002, 0.998, 192.0, 0.0, 0.0, 0.0, 0.0, 0.0, 0.0, 0.0, 0.0, 0.0, 1.6895992485427856E9, 0.0, 2023-07-17 15:07:28.542
235.0, -122.93459450418885, 187500.0, 187500.0, 187500.0, 187500.0, 187500.0, 187500.0, 187500.0, 0.03, -0.018000000000000002, 0.998, 192.0, 0.0, 0.0, 0.0, 0.0, 0.0, 0.0, 0.0, 0.0, 0.0, 1.6895992485428317E9, 0.0, 2023-07-17 15:07:28.542
236.0, -106.23784139607447, 187500.0, 187500.0, 187500.0, 187500.0, 187500.0, 187500.0, 187500.0, 0.03, -0.018000000000000002, 0.998, 192.0, 0.0, 0.0, 0.0, 0.0, 0.0, 0.0, 0.0, 0.0, 0.0, 1.6895992485428755E9, 0.0, 2023-07-17 15:07:28.542
237.0, -109.36708561981746, 187500.0, 187500.0, 187500.0, 187500.0, 187500.0, 187500.0, 187500.0, 0.03, -0.018000000000000002, 0.998, 192.0, 0.0, 0.0, 0.0, 0.0, 0.0, 0.0, 0.0, 0.0, 0.0, 1.6895992485429277E9, 0.0, 2023-07-17 15:07:28.542
238.0, -128.2319579400966, 187500.0, 187500.0, 187500.0, 187500.0, 187500.0, 187500.0, 187500.0, 0.03, -0.018000000000000002, 0.998, 192.0, 0.0, 0.0, 0.0, 0.0, 0.0, 0.0, 0.0, 0.0, 0.0, 1.6895992485429745E9, 0.0, 2023-07-17 15:07:28.542
239.0, -137.21735921113006, 187500.0, 187500.0, 187500.0, 187500.0, 187500.0, 187500.0, 187500.0, 0.028, -0.02, 1.002, 192.0, 0.0, 224.0, 255.0, 96.0, 31.0, 80.0, 0.0, 0.0, 0.0, 1.68959924854302E9, 0.0, 2023-07-17 15:07:28.543
240.0, -123.62749858230336, 187500.0, 187500.0, 187500.0, 187500.0, 187500.0, 187500.0, 187500.0, 0.028, -0.02, 1.002, 192.0, 0.0, 0.0, 0.0, 0.0, 0.0, 0.0, 0.0, 0.0, 0.0, 1.6895992485430682E9, 0.0, 2023-07-17 15:07:28.543
241.0, -105.67904778469179, 187500.0, 187500.0, 187500.0, 187500.0, 187500.0, 187500.0, 187500.0, 0.028, -0.02, 1.002, 192.0, 0.0, 0.0, 0.0, 0.0, 0.0, 0.0, 0.0, 0.0, 0.0, 1.689599248543115E9, 0.0, 2023-07-17 15:07:28.543
242.0, -108.51771933051579, 187500.0, 187500.0, 187500.0, 187500.0, 187500.0, 187500.0, 187500.0, 0.028, -0.02, 1.002, 192.0, 0.0, 0.0, 0.0, 0.0, 0.0, 0.0, 0.0, 0.0, 0.0, 1.6895992485431612E9, 0.0, 2023-07-17 15:07:28.543
243.0, -127.33788816188434, 187500.0, 187500.0, 187500.0, 187500.0, 187500.0, 187500.0, 187500.0, 0.028, -0.02, 1.002, 192.0, 0.0, 0.0, 0.0, 0.0, 0.0, 0.0, 0.0, 0.0, 0.0, 1.6895992485432043E9, 0.0, 2023-07-17 15:07:28.543
244.0, -136.47975164410494, 187500.0, 187500.0, 187500.0, 187500.0, 187500.0, 187500.0, 187500.0, 0.028, -0.02, 1.002, 192.0, 0.0, 0.0, 0.0, 0.0, 0.0, 0.0, 0.0, 0.0, 0.0, 1.6895992485432494E9, 0.0, 2023-07-17 15:07:28.543
245.0, -123.51573986002683, 187500.0, 187500.0, 187500.0, 187500.0, 187500.0, 187500.0, 187500.0, 0.028, -0.02, 1.002, 192.0, 0.0, 0.0, 0.0, 0.0, 0.0, 0.0, 0.0, 0.0, 0.0, 1.689599248543296E9, 0.0, 2023-07-17 15:07:28.543
246.0, -105.58964080687056, 187500.0, 187500.0, 187500.0, 187500.0, 187500.0, 187500.0, 187500.0, 0.028, -0.02, 1.002, 192.0, 0.0, 0.0, 0.0, 0.0, 0.0, 0.0, 0.0, 0.0, 0.0, 1.689599248543343E9, 0.0, 2023-07-17 15:07:28.543
247.0, -107.78011176349065, 187500.0, 187500.0, 187500.0, 187500.0, 187500.0, 187500.0, 187500.0, 0.028, -0.02, 1.002, 192.0, 0.0, 0.0, 0.0, 0.0, 0.0, 0.0, 0.0, 0.0, 0.0, 1.6895992485433865E9, 0.0, 2023-07-17 15:07:28.543
248.0, -127.00261199505474, 187500.0, 187500.0, 187500.0, 187500.0, 187500.0, 187500.0, 187500.0, 0.028, -0.02, 1.002, 192.0, 0.0, 0.0, 0.0, 0.0, 0.0, 0.0, 0.0, 0.0, 0.0, 1.6895992485435257E9, 0.0, 2023-07-17 15:07:28.543
249.0, -136.703269088658, 187500.0, 187500.0, 187500.0, 187500.0, 187500.0, 187500.0, 187500.0, 0.026000000000000002, -0.02, 1.002, 192.0, 0.0, 208.0, 255.0, 96.0, 31.0, 80.0, 0.0, 0.0, 0.0, 1.6895992485435753E9, 0.0, 2023-07-17 15:07:28.543
250.0, -123.62749858230336, 187500.0, 187500.0, 187500.0, 187500.0, 187500.0, 187500.0, 187500.0, 0.026000000000000002, -0.02, 1.002, 192.0, 0.0, 0.0, 0.0, 0.0, 0.0, 0.0, 0.0, 0.0, 0.0, 1.6895992485436225E9, 0.0, 2023-07-17 15:07:28.543
251.0, -106.88604198527837, 187500.0, 187500.0, 187500.0, 187500.0, 187500.0, 187500.0, 187500.0, 0.026000000000000002, -0.02, 1.002, 192.0, 0.0, 0.0, 0.0, 0.0, 0.0, 0.0, 0.0, 0.0, 0.0, 1.6895992485436668E9, 0.0, 2023-07-17 15:07:28.543
252.0, -108.45066409714987, 187500.0, 187500.0, 187500.0, 187500.0, 187500.0, 187500.0, 187500.0, 0.026000000000000002, -0.02, 1.002, 192.0, 0.0, 0.0, 0.0, 0.0, 0.0, 0.0, 0.0, 0.0, 0.0, 1.6895992485437107E9, 0.0, 2023-07-17 15:07:28.543
253.0, -127.38259165079495, 187500.0, 187500.0, 187500.0, 187500.0, 187500.0, 187500.0, 187500.0, 0.026000000000000002, -0.02, 1.002, 192.0, 0.0, 0.0, 0.0, 0.0, 0.0, 0.0, 0.0, 0.0, 0.0, 1.6895992485437553E9, 0.0, 2023-07-17 15:07:28.543
254.0, -136.703269088658, 187500.0, 187500.0, 187500.0, 187500.0, 187500.0, 187500.0, 187500.0, 0.026000000000000002, -0.02, 1.002, 192.0, 0.0, 0.0, 0.0, 0.0, 0.0, 0.0, 0.0, 0.0, 0.0, 1.6895992485438008E9, 0.0, 2023-07-17 15:07:28.543
255.0, -123.7616090490352, 187500.0, 187500.0, 187500.0, 187500.0, 187500.0, 187500.0, 187500.0, 0.026000000000000002, -0.02, 1.002, 192.0, 0.0, 0.0, 0.0, 0.0, 0.0, 0.0, 0.0, 0.0, 0.0, 1.689599248543846E9, 0.0, 2023-07-17 15:07:28.543
0.0, -106.30489662944039, 187500.0, 187500.0, 187500.0, 187500.0, 187500.0, 187500.0, 187500.0, 0.026000000000000002, -0.02, 1.002, 192.0, 0.0, 0.0, 0.0, 0.0, 0.0, 0.0, 0.0, 0.0, 0.0, 1.6895992485438938E9, 0.0, 2023-07-17 15:07:28.543
1.0, -108.13773967477557, 187500.0, 187500.0, 187500.0, 187500.0, 187500.0, 187500.0, 187500.0, 0.026000000000000002, -0.02, 1.002, 192.0, 0.0, 0.0, 0.0, 0.0, 0.0, 0.0, 0.0, 0.0, 0.0, 1.6895992485439384E9, 0.0, 2023-07-17 15:07:28.543
2.0, -126.6002805948592, 187500.0, 187500.0, 187500.0, 187500.0, 187500.0, 187500.0, 187500.0, 0.026000000000000002, -0.02, 1.002, 192.0, 0.0, 0.0, 0.0, 0.0, 0.0, 0.0, 0.0, 0.0, 0.0, 1.689599248543984E9, 0.0, 2023-07-17 15:07:28.543
3.0, -136.23388245509653, 187500.0, 187500.0, 187500.0, 187500.0, 187500.0, 187500.0, 187500.0, 0.034, -0.02, 1.002, 192.0, 1.0, 16.0, 255.0, 96.0, 31.0, 80.0, 0.0, 0.0, 0.0, 1.6895992485440288E9, 0.0, 2023-07-17 15:07:28.544
4.0, -123.80631253794581, 187500.0, 187500.0, 187500.0, 187500.0, 187500.0, 187500.0, 187500.0, 0.034, -0.02, 1.002, 192.0, 0.0, 0.0, 0.0, 0.0, 0.0, 0.0, 0.0, 0.0, 0.0, 1.6895992485440772E9, 0.0, 2023-07-17 15:07:28.544
5.0, -106.48371058508285, 187500.0, 187500.0, 187500.0, 187500.0, 187500.0, 187500.0, 187500.0, 0.034, -0.02, 1.002, 192.0, 0.0, 0.0, 0.0, 0.0, 0.0, 0.0, 0.0, 0.0, 0.0, 1.689599248544119E9, 0.0, 2023-07-17 15:07:28.544
6.0, -108.33890537487333, 187500.0, 187500.0, 187500.0, 187500.0, 187500.0, 187500.0, 187500.0, 0.034, -0.02, 1.002, 192.0, 0.0, 0.0, 0.0, 0.0, 0.0, 0.0, 0.0, 0.0, 0.0, 1.6895992485441616E9, 0.0, 2023-07-17 15:07:28.544
7.0, -127.33788816188434, 187500.0, 187500.0, 187500.0, 187500.0, 187500.0, 187500.0, 187500.0, 0.034, -0.02, 1.002, 192.0, 0.0, 0.0, 0.0, 0.0, 0.0, 0.0, 0.0, 0.0, 0.0, 1.6895992485442102E9, 0.0, 2023-07-17 15:07:28.544
8.0, -136.59151036638147, 187500.0, 187500.0, 187500.0, 187500.0, 187500.0, 187500.0, 187500.0, 0.034, -0.02, 1.002, 192.0, 0.0, 0.0, 0.0, 0.0, 0.0, 0.0, 0.0, 0.0, 0.0, 1.6895992485444593E9, 0.0, 2023-07-17 15:07:28.544
