%OpenBCI Raw EXG Data
%Number of channels = 8
%Sample Rate = 250 Hz
%Board = OpenBCI_GUI$BoardCytonSerial
Sample Index, EXG Channel 0, EXG Channel 1, EXG Channel 2, EXG Channel 3, EXG Channel 4, EXG Channel 5, EXG Channel 6, EXG Channel 7, Accel Channel 0, Accel Channel 1, Accel Channel 2, Other, Other, Other, Other, Other, Other, Other, Analog Channel 0, Analog Channel 1, Analog Channel 2, Timestamp, Other, Timestamp (Formatted)
0.0, 0.0, 0.0, 0.0, 0.0, 0.0, 0.0, 0.0, 0.0, 0.0, 0.0, 0.0, 192.0, 0.0, 0.0, 0.0, 0.0, 0.0, 0.0, 0.0, 0.0, 0.0, 1.6896027842884555E9, 0.0, 2023-07-17 16:06:24.288
1.0, -178106.5452821905, -181119.13575162122, -178011.14803685524, -177935.62149234075, -180302.49241620212, -181301.57068986545, -183476.28366664454, 187500.0, 0.034, -0.012, 1.0, 192.0, 1.0, 16.0, 255.0, 160.0, 31.0, 64.0, 0.0, 0.0, 0.0, 1.689602784775627E9, 0.0, 2023-07-17 16:06:24.775
2.0, -178151.58404726794, -181113.97249865206, -178018.03237414747, -177952.13943149324, -180267.02019775155, -181297.03328574102, -183445.5500180185, 187500.0, 0.034, -0.012, 1.0, 192.0, 0.0, 0.0, 0.0, 0.0, 0.0, 0.0, 0.0, 0.0, 0.0, 1.689602784775804E9, 0.0, 2023-07-17 16:06:24.775
3.0, -178263.9239149003, -181151.43402235914, -178021.63100500478, -177928.33482364833, -180217.24286284958, -181281.02943671102, -183436.60932023637, 187500.0, 0.034, -0.012, 1.0, 192.0, 0.0, 0.0, 0.0, 0.0, 0.0, 0.0, 0.0, 0.0, 0.0, 1.6896027847758548E9, 0.0, 2023-07-17 16:06:24.775
4.0, -178354.20261075528, -181200.65256364972, -177987.4104842437, -177967.3609694673, -180210.38087730182, -181233.68844195467, -183371.11870898234, 187500.0, 0.034, -0.012, 1.0, 192.0, 0.0, 0.0, 0.0, 0.0, 0.0, 0.0, 0.0, 0.0, 0.0, 1.6896027847759008E9, 0.0, 2023-07-17 16:06:24.775
5.0, -178381.73995992422, -181174.63513310376, -178005.15776934123, -177951.53593439294, -180168.09137679238, -181242.56208450344, -183374.76204332855, 187500.0, 0.034, -0.012, 1.0, 192.0, 0.0, 0.0, 0.0, 0.0, 0.0, 0.0, 0.0, 0.0, 0.0, 1.6896027847759452E9, 0.0, 2023-07-17 16:06:24.775
6.0, -178453.7125770703, -181209.30268875393, -177998.92163263817, -177937.14141096373, -180152.73572835157, -181238.02468037902, -183376.59488637387, 187500.0, 0.034, -0.012, 1.0, 192.0, 0.0, 0.0, 0.0, 0.0, 0.0, 0.0, 0.0, 0.0, 0.0, 1.689602784775987E9, 0.0, 2023-07-17 16:06:24.775
7.0, -178468.19650747735, -181215.5835289459, -177957.97323679607, -177959.98489379705, -180147.84069631586, -181177.3620459273, -183304.73402795006, 187500.0, 0.034, -0.012, 1.0, 192.0, 0.0, 0.0, 0.0, 0.0, 0.0, 0.0, 0.0, 0.0, 0.0, 1.6896027847760327E9, 0.0, 2023-07-17 16:06:24.776
8.0, -178498.59487993657, -181198.28327873748, -177990.271507534, -177935.44267838512, -180131.74744030804, -181205.7264096411, -183340.98855745659, 187500.0, 0.026000000000000002, -0.012, 1.0, 192.0, 0.0, 208.0, 255.0, 160.0, 31.0, 64.0, 0.0, 0.0, 0.0, 1.689602784776081E9, 0.0, 2023-07-17 16:06:24.776
9.0, -178568.62289531506, -181238.78463969048, -177972.88185034774, -177915.46021884205, -180131.23335018556, -181195.39990370272, -183339.2227696446, 187500.0, 0.026000000000000002, -0.012, 1.0, 192.0, 0.0, 0.0, 0.0, 0.0, 0.0, 0.0, 0.0, 0.0, 0.0, 1.6896027847761438E9, 0.0, 2023-07-17 16:06:24.776
10.0, -178580.53637510972, -181237.5776454899, -177926.25611141397, -177930.65940507167, -180118.93989073514, -181130.9598244381, -183265.43966119763, 187500.0, 0.026000000000000002, -0.012, 1.0, 192.0, 0.0, 0.0, 0.0, 0.0, 0.0, 0.0, 0.0, 0.0, 0.0, 1.6896027847761931E9, 0.0, 2023-07-17 16:06:24.776
11.0, -178622.06591630768, -181225.3288895284, -177962.77886185396, -177916.86837874274, -180105.0147539395, -181162.14050795324, -183305.20341458364, 187500.0, 0.026000000000000002, -0.012, 1.0, 192.0, 0.0, 0.0, 0.0, 0.0, 0.0, 0.0, 0.0, 0.0, 0.0, 1.6896027847762394E9, 0.0, 2023-07-17 16:06:24.776
12.0, -178708.38835339408, -181277.27434364252, -177961.8624403313, -177909.31348911684, -180109.97684120858, -181151.03169095895, -183301.00128662604, 187500.0, 0.026000000000000002, -0.012, 1.0, 192.0, 0.0, 0.0, 0.0, 0.0, 0.0, 0.0, 0.0, 0.0, 0.0, 1.6896027847762895E9, 0.0, 2023-07-17 16:06:24.776
13.0, -178719.72068783292, -181273.60865755184, -177928.15600969267, -177928.29012015942, -180102.77957949397, -181106.30585030388, -183242.26090219748, 187500.0, 0.026000000000000002, -0.012, 1.0, 192.0, 0.0, 0.0, 0.0, 0.0, 0.0, 0.0, 0.0, 0.0, 0.0, 1.6896027847763352E9, 0.0, 2023-07-17 16:06:24.776
14.0, -178752.46599345995, -181249.71464272914, -177945.63507385674, -177887.8334626953, -180056.62322719375, -181111.06677187287, -183258.9576553056, 187500.0, 0.026000000000000002, -0.012, 1.0, 192.0, 0.0, 0.0, 0.0, 0.0, 0.0, 0.0, 0.0, 0.0, 0.0, 1.6896027847763848E9, 0.0, 2023-07-17 16:06:24.776
15.0, -178844.465773638, -181304.52112013355, -177927.93249224813, -177906.11718965974, -180060.06539583986, -181075.01340806644, -183220.4008961202, 187500.0, 0.026000000000000002, -0.012, 1.0, 192.0, 0.0, 0.0, 0.0, 0.0, 0.0, 0.0, 0.0, 0.0, 0.0, 1.6896027847769551E9, 0.0, 2023-07-17 16:06:24.776
16.0, -178881.8825938562, -181309.17028298025, -177944.4951348895, -177946.57384712386, -180063.19464006362, -181064.26221898344, -183196.90921269768, 187500.0, 0.026000000000000002, -0.012, 1.0, 192.0, 0.0, 0.0, 0.0, 0.0, 0.0, 0.0, 0.0, 0.0, 0.0, 1.6896027847770035E9, 0.0, 2023-07-17 16:06:24.777
17.0, -178955.28572264742, -181305.99633526758, -177954.9557512946, -177916.22017815354, -180011.20448246057, -181044.1232972292, -183183.4311107911, 187500.0, 0.026000000000000002, -0.012, 1.0, 192.0, 0.0, 0.0, 0.0, 0.0, 0.0, 0.0, 0.0, 0.0, 0.0, 1.6896027847770452E9, 0.0, 2023-07-17 16:06:24.777
18.0, -179034.83558116385, -181348.3081875215, -177924.98206198003, -177940.53887612093, -180004.11897946824, -180980.44317727606, -183114.38657216867, 187500.0, 0.026000000000000002, -0.006, 1.008, 192.0, 0.0, 208.0, 255.0, 208.0, 31.0, 128.0, 0.0, 0.0, 0.0, 1.6896027847770877E9, 0.0, 2023-07-17 16:06:24.777
19.0, -179063.3117035999, -181328.88452158982, -177937.07435573035, -177937.02965224144, -179972.87124071972, -180970.20607831553, -183099.54501385035, 187500.0, 0.026000000000000002, -0.006, 1.008, 192.0, 0.0, 0.0, 0.0, 0.0, 0.0, 0.0, 0.0, 0.0, 0.0, 1.6896027847771301E9, 0.0, 2023-07-17 16:06:24.777
20.0, -179156.51847797853, -181360.22166731616, -177930.07825971584, -177919.8411607553, -179945.57976073978, -180948.68134840505, -183079.87547872966, 187500.0, 0.026000000000000002, -0.006, 1.008, 192.0, 0.0, 0.0, 0.0, 0.0, 0.0, 0.0, 0.0, 0.0, 0.0, 1.6896027847771707E9, 0.0, 2023-07-17 16:06:24.777
21.0, -179200.3502488554, -181386.88729845136, -177921.76341077845, -177955.6486553727, -179961.8741824477, -180925.39083068262, -183039.3964695211, 187500.0, 0.026000000000000002, -0.006, 1.008, 192.0, 0.0, 0.0, 0.0, 0.0, 0.0, 0.0, 0.0, 0.0, 0.0, 1.6896027847772124E9, 0.0, 2023-07-17 16:06:24.777
22.0, -179217.71755429718, -181353.6055509574, -177936.42615514115, -177921.02580321144, -179918.0647633153, -180926.08373476073, -183050.43823128202, 187500.0, 0.026000000000000002, -0.006, 1.008, 192.0, 0.0, 0.0, 0.0, 0.0, 0.0, 0.0, 0.0, 0.0, 0.0, 1.689602784777256E9, 0.0, 2023-07-17 16:06:24.777
23.0, -179295.21105232372, -181399.65014453532, -177924.73619279102, -177939.75656506498, -179924.25619652943, -180896.02063846836, -183029.31583277177, 187500.0, 0.026000000000000002, -0.006, 1.008, 192.0, 0.0, 0.0, 0.0, 0.0, 0.0, 0.0, 0.0, 0.0, 0.0, 1.6896027847773068E9, 0.0, 2023-07-17 16:06:24.777
24.0, -179288.39377026484, -181376.60549600192, -177926.83725676982, -177952.92174254917, -179922.51276046192, -180885.58237380773, -183012.30615524127, 187500.0, 0.026000000000000002, -0.006, 1.008, 192.0, 0.0, 0.0, 0.0, 0.0, 0.0, 0.0, 0.0, 0.0, 0.0, 1.6896027847773497E9, 0.0, 2023-07-17 16:06:24.777
25.0, -179330.99619519667, -181371.64340873284, -177940.69533833212, -177913.91794847464, -179904.13962651964, -180886.56585056375, -183042.81628642278, 187500.0, 0.026000000000000002, -0.006, 1.008, 192.0, 0.0, 0.0, 0.0, 0.0, 0.0, 0.0, 0.0, 0.0, 0.0, 1.6896027847773952E9, 0.0, 2023-07-17 16:06:24.777
26.0, -179376.59375388548, -181402.57822305898, -177895.56716627686, -177932.38048939474, -179911.5157021899, -180838.01786160684, -182993.32952419872, 187500.0, 0.026000000000000002, -0.006, 1.008, 192.0, 0.0, 0.0, 0.0, 0.0, 0.0, 0.0, 0.0, 0.0, 0.0, 1.6896027847774365E9, 0.0, 2023-07-17 16:06:24.777
27.0, -179380.43825393182, -181371.95633315522, -177905.51369255947, -177925.33968989132, -179890.6615246131, -180841.95176863097, -182985.61817236163, 187500.0, 0.026000000000000002, -0.006, 1.008, 192.0, 0.0, 0.0, 0.0, 0.0, 0.0, 0.0, 0.0, 0.0, 0.0, 1.689602784777475E9, 0.0, 2023-07-17 16:06:24.777
28.0, -179477.98126673477, -181402.98055445918, -177903.05500066938, -177914.0520589414, -179873.62949533816, -180832.34051851518, -182985.685227595, 187500.0, 0.038, -0.004, 1.008, 192.0, 1.0, 48.0, 255.0, 224.0, 31.0, 128.0, 0.0, 0.0, 0.0, 1.6896027847775128E9, 0.0, 2023-07-17 16:06:24.777
29.0, -179500.24360421224, -181407.78617951708, -177885.0394946384, -177936.26969292996, -179883.196041965, -180800.19870998844, -182947.93313121, 187500.0, 0.038, -0.004, 1.008, 192.0, 0.0, 0.0, 0.0, 0.0, 0.0, 0.0, 0.0, 0.0, 0.0, 1.689602784777556E9, 0.0, 2023-07-17 16:06:24.777
30.0, -179510.23483398376, -181375.7114262237, -177897.95880293357, -177898.65170701168, -179847.70147177, -180806.05486703574, -182968.85436402017, 187500.0, 0.038, -0.004, 1.008, 192.0, 0.0, 0.0, 0.0, 0.0, 0.0, 0.0, 0.0, 0.0, 0.0, 1.6896027847777236E9, 0.0, 2023-07-17 16:06:24.777
31.0, -179561.3756252975, -181406.4674265942, -177881.66438122565, -177908.95586120558, -179846.62858803614, -180774.49420386486, -182949.38599459958, 187500.0, 0.038, -0.004, 1.008, 192.0, 0.0, 0.0, 0.0, 0.0, 0.0, 0.0, 0.0, 0.0, 0.0, 1.6896027847777665E9, 0.0, 2023-07-17 16:06:24.777
32.0, -179544.90238963396, -181380.9640861707, -177883.72074171554, -177918.1424281767, -179854.42934685104, -180774.04716897575, -182938.54539853876, 187500.0, 0.038, -0.004, 1.008, 192.0, 0.0, 0.0, 0.0, 0.0, 0.0, 0.0, 0.0, 0.0, 0.0, 1.6896027847778056E9, 0.0, 2023-07-17 16:06:24.777
33.0, -179577.75945398325, -181377.90189718033, -177895.90244244368, -177872.25429680996, -179840.9959484334, -180786.09475923717, -182978.5773728582, 187500.0, 0.038, -0.004, 1.008, 192.0, 0.0, 0.0, 0.0, 0.0, 0.0, 0.0, 0.0, 0.0, 0.0, 1.689602784777847E9, 0.0, 2023-07-17 16:06:24.777
34.0, -179603.0392769622, -181404.2769556376, -177859.44674723706, -177894.04724765389, -179854.18347766204, -180757.55158156774, -182942.2781398628, 187500.0, 0.038, -0.004, 1.008, 192.0, 0.0, 0.0, 0.0, 0.0, 0.0, 0.0, 0.0, 0.0, 0.0, 1.6896027847778876E9, 0.0, 2023-07-17 16:06:24.777
35.0, -179593.5397855687, -181374.57148725647, -177882.06671262585, -177888.8392911958, -179846.78505024733, -180774.158927698, -182950.30241612226, 187500.0, 0.038, -0.004, 1.008, 192.0, 0.0, 0.0, 0.0, 0.0, 0.0, 0.0, 0.0, 0.0, 0.0, 1.6896027847779284E9, 0.0, 2023-07-17 16:06:24.777
36.0, -179661.66790266847, -181396.38678984487, -177875.04826486687, -177861.86073563824, -179831.67527099553, -180773.84600327566, -182958.01376795935, 187500.0, 0.038, -0.004, 1.008, 192.0, 0.0, 0.0, 0.0, 0.0, 0.0, 0.0, 0.0, 0.0, 0.0, 1.6896027847779691E9, 0.0, 2023-07-17 16:06:24.777
37.0, -179673.73784467435, -181400.03012419108, -177842.66058715113, -177889.9345266741, -179838.42549782104, -180738.418488314, -182909.1752063245, 187500.0, 0.038, -0.004, 1.008, 192.0, 0.0, 0.0, 0.0, 0.0, 0.0, 0.0, 0.0, 0.0, 0.0, 1.6896027847780118E9, 0.0, 2023-07-17 16:06:24.778
38.0, -179683.52790874577, -181376.20316460173, -177879.25039282447, -177868.49920374146, -179823.3380703137, -180764.23475315986, -182937.94190143846, 187500.0, 0.032, -0.018000000000000002, 0.998, 192.0, 1.0, 0.0, 255.0, 112.0, 31.0, 48.0, 0.0, 0.0, 0.0, 1.6896027847780535E9, 0.0, 2023-07-17 16:06:24.778
39.0, -179744.63757808658, -181413.2176534197, -177862.5312879719, -177863.26889553893, -179830.02124190584, -180751.1142791646, -182947.95548295445, 187500.0, 0.032, -0.018000000000000002, 0.998, 192.0, 0.0, 0.0, 0.0, 0.0, 0.0, 0.0, 0.0, 0.0, 0.0, 1.6896027847780972E9, 0.0, 2023-07-17 16:06:24.778
40.0, -179716.0720486727, -181388.9660106857, -177840.6712818946, -177877.46225326805, -179836.57030303124, -180723.152246851, -182912.0138778703, 187500.0, 0.032, -0.018000000000000002, 0.998, 192.0, 0.0, 0.0, 0.0, 0.0, 0.0, 0.0, 0.0, 0.0, 0.0, 1.689602784778139E9, 0.0, 2023-07-17 16:06:24.778
41.0, -179739.34021465067, -181371.71046396618, -177876.97051489004, -177853.56823844532, -179821.37111680166, -180753.43886058795, -182955.24215164687, 187500.0, 0.032, -0.018000000000000002, 0.998, 192.0, 0.0, 0.0, 0.0, 0.0, 0.0, 0.0, 0.0, 0.0, 0.0, 1.6896027847781808E9, 0.0, 2023-07-17 16:06:24.778
42.0, -179783.2837442498, -181404.5675283155, -177843.44289820708, -177857.0774623248, -179827.62960524912, -180724.62746198507, -182937.56192178273, 187500.0, 0.032, -0.018000000000000002, 0.998, 192.0, 0.0, 0.0, 0.0, 0.0, 0.0, 0.0, 0.0, 0.0, 0.0, 1.6896027847782233E9, 0.0, 2023-07-17 16:06:24.778
43.0, -179754.673511347, -181379.69003673675, -177846.5274389419, -177869.03564560838, -179847.41089909206, -180733.50110453382, -182932.95746242494, 187500.0, 0.032, -0.018000000000000002, 0.998, 192.0, 0.0, 0.0, 0.0, 0.0, 0.0, 0.0, 0.0, 0.0, 0.0, 1.6896027847782648E9, 0.0, 2023-07-17 16:06:24.778
44.0, -179778.67928489202, -181380.5617547705, -177884.5254045159, -177828.69074686657, -179845.53335255783, -180779.34453241166, -182991.42962592002, 187500.0, 0.032, -0.018000000000000002, 0.998, 192.0, 0.0, 0.0, 0.0, 0.0, 0.0, 0.0, 0.0, 0.0, 0.0, 1.689602784778312E9, 0.0, 2023-07-17 16:06:24.778
45.0, -179789.76575014184, -181403.62875504838, -177840.51481968342, -177851.44482272206, -179865.06877721177, -180751.53896230925, -182959.48898309338, 187500.0, 0.032, -0.018000000000000002, 0.998, 192.0, 0.0, 0.0, 0.0, 0.0, 0.0, 0.0, 0.0, 0.0, 0.0, 1.6896027847784016E9, 0.0, 2023-07-17 16:06:24.778
46.0, -179760.5743718832, -181358.79115567103, -177849.74609014345, -177848.71790989852, -179848.5061345704, -180748.18620064095, -182955.5327243248, 187500.0, 0.032, -0.018000000000000002, 0.998, 192.0, 0.0, 0.0, 0.0, 0.0, 0.0, 0.0, 0.0, 0.0, 0.0, 1.6896027847784438E9, 0.0, 2023-07-17 16:06:24.778
47.0, -179823.60629124718, -181379.7123884812, -177849.16494478763, -177831.50706666792, -179827.62960524912, -180745.95102619543, -182963.44524186198, 187500.0, 0.034, -0.008, 0.996, 192.0, 1.0, 16.0, 255.0, 192.0, 31.0, 32.0, 0.0, 0.0, 0.0, 1.6896027847784843E9, 0.0, 2023-07-17 16:06:24.778
48.0, -179847.8579339812, -181405.1710254158, -177833.09404052427, -177873.41658752164, -179847.99204444792, -180727.04145038623, -182921.80394194173, 187500.0, 0.034, -0.008, 0.996, 192.0, 0.0, 0.0, 0.0, 0.0, 0.0, 0.0, 0.0, 0.0, 0.0, 1.6896027847785277E9, 0.0, 2023-07-17 16:06:24.778
49.0, -179853.75879451737, -181374.70559772322, -177857.34568325826, -177850.57310468832, -179819.6500324786, -180735.5574650237, -182936.31022409323, 187500.0, 0.034, -0.008, 0.996, 192.0, 0.0, 0.0, 0.0, 0.0, 0.0, 0.0, 0.0, 0.0, 0.0, 1.6896027847785692E9, 0.0, 2023-07-17 16:06:24.778
50.0, -179903.714943375, -181399.8736619799, -177820.88998805167, -177845.16398253012, -179807.62479396164, -180713.9433281354, -182918.3841250401, 187500.0, 0.034, -0.008, 0.996, 192.0, 0.0, 0.0, 0.0, 0.0, 0.0, 0.0, 0.0, 0.0, 0.0, 1.689602784778612E9, 0.0, 2023-07-17 16:06:24.778
51.0, -179883.68778034305, -181384.87564145037, -177822.78988633037, -177871.91902064314, -179814.97851788742, -180707.28250828775, -182886.04115081325, 187500.0, 0.034, -0.008, 0.996, 192.0, 0.0, 0.0, 0.0, 0.0, 0.0, 0.0, 0.0, 0.0, 0.0, 1.6896027847786536E9, 0.0, 2023-07-17 16:06:24.778
52.0, -179912.45447545702, -181377.4101588023, -177854.976398346, -177848.40498547614, -179790.34689549767, -180730.9530056659, -182921.80394194173, 187500.0, 0.034, -0.008, 0.996, 192.0, 0.0, 0.0, 0.0, 0.0, 0.0, 0.0, 0.0, 0.0, 0.0, 1.689602784778695E9, 0.0, 2023-07-17 16:06:24.778
53.0, -179941.39998452665, -181403.94167947076, -177816.7102118385, -177867.06869209633, -179790.74922689787, -180695.01140058177, -182890.60090668214, 187500.0, 0.034, -0.008, 0.996, 192.0, 0.0, 0.0, 0.0, 0.0, 0.0, 0.0, 0.0, 0.0, 0.0, 1.6896027847787373E9, 0.0, 2023-07-17 16:06:24.778
54.0, -179924.99380409645, -181376.62784774636, -177840.8724475947, -177877.50695675696, -179802.99798285938, -180709.6964966889, -182893.50663346134, 187500.0, 0.034, -0.008, 0.996, 192.0, 0.0, 0.0, 0.0, 0.0, 0.0, 0.0, 0.0, 0.0, 0.0, 1.6896027847787793E9, 0.0, 2023-07-17 16:06:24.778
55.0, -179943.5234002499, -181369.92232440977, -177835.26215973642, -177823.1698659861, -179778.47811919192, -180724.3592410516, -182933.89623569205, 187500.0, 0.034, -0.008, 0.996, 192.0, 0.0, 0.0, 0.0, 0.0, 0.0, 0.0, 0.0, 0.0, 0.0, 1.6896027847788208E9, 0.0, 2023-07-17 16:06:24.778
56.0, -179958.90140043516, -181406.78035101658, -177811.30108968035, -177864.43118625061, -179815.1796835875, -180702.20866229638, -182908.88463364658, 187500.0, 0.034, -0.008, 0.996, 192.0, 0.0, 0.0, 0.0, 0.0, 0.0, 0.0, 0.0, 0.0, 0.0, 1.6896027847788625E9, 0.0, 2023-07-17 16:06:24.778
57.0, -179914.6225946692, -181363.14974583982, -177837.60909290423, -177854.46230822353, -179828.81424770528, -180730.68478473244, -182944.06627941923, 187500.0, 0.04, -0.014, 1.018, 192.0, 1.0, 64.0, 255.0, 144.0, 31.0, 208.0, 0.0, 0.0, 0.0, 1.689602784778904E9, 0.0, 2023-07-17 16:06:24.778
58.0, -179891.2650217134, -181333.33251873642, -177862.9336193721, -177795.18548192806, -179836.12326814214, -180776.0141224878, -183027.79591414882, 187500.0, 0.04, -0.014, 1.018, 192.0, 0.0, 0.0, 0.0, 0.0, 0.0, 0.0, 0.0, 0.0, 0.0, 1.6896027847789495E9, 0.0, 2023-07-17 16:06:24.778
59.0, -179849.48961132643, -181325.8446843439, -177801.75689479793, -177811.83753154727, -179867.32630340176, -180740.6089592706, -182996.77169284484, 187500.0, 0.04, -0.014, 1.018, 192.0, 0.0, 0.0, 0.0, 0.0, 0.0, 0.0, 0.0, 0.0, 0.0, 1.6896027847789912E9, 0.0, 2023-07-17 16:06:24.778
60.0, -179773.67249413402, -181265.2938086145, -177795.38664762815, -177794.80550227233, -179881.63141985316, -180751.36014835362, -183013.51314944186, 187500.0, 0.04, -0.014, 1.018, 192.0, 0.0, 0.0, 0.0, 0.0, 0.0, 0.0, 0.0, 0.0, 0.0, 1.6896027847791557E9, 0.0, 2023-07-17 16:06:24.779
61.0, -179765.2905899633, -181237.48823851207, -177842.59353191778, -177757.03105414286, -179889.07455075678, -180809.34057347066, -183107.09990347625, 187500.0, 0.04, -0.014, 1.018, 192.0, 0.0, 0.0, 0.0, 0.0, 0.0, 0.0, 0.0, 0.0, 0.0, 1.689602784779196E9, 0.0, 2023-07-17 16:06:24.779
62.0, -179720.56474930822, -181251.79335496348, -177804.90849076613, -177782.9143742221, -179936.79552516885, -180790.18512847248, -183093.75591203643, 187500.0, 0.04, -0.014, 1.018, 192.0, 0.0, 0.0, 0.0, 0.0, 0.0, 0.0, 0.0, 0.0, 0.0, 1.6896027847792382E9, 0.0, 2023-07-17 16:06:24.779
63.0, -179656.32583574366, -181222.46786623812, -177809.11061872373, -177793.68791504955, -179954.0287201439, -180791.1239017396, -183088.48090034496, 187500.0, 0.04, -0.014, 1.018, 192.0, 0.0, 0.0, 0.0, 0.0, 0.0, 0.0, 0.0, 0.0, 0.0, 1.68960278477928E9, 0.0, 2023-07-17 16:06:24.779
64.0, -179621.92650102693, -181155.34557763883, -177834.99393880297, -177736.51215273287, -179933.59922571175, -180840.11892558564, -183148.89766560766, 187500.0, 0.04, -0.014, 1.018, 192.0, 0.0, 0.0, 0.0, 0.0, 0.0, 0.0, 0.0, 0.0, 0.0, 1.689602784779322E9, 0.0, 2023-07-17 16:06:24.779
65.0, -179521.38835446697, -181140.9063507207, -177831.48471492348, -177724.7998386383, -180007.73996207, -180877.87102197064, -183225.05005896688, 187500.0, 0.04, -0.014, 1.018, 192.0, 0.0, 0.0, 0.0, 0.0, 0.0, 0.0, 0.0, 0.0, 0.0, 1.6896027847793694E9, 0.0, 2023-07-17 16:06:24.779
66.0, -179428.5615597441, -181147.1201356793, -177795.58781332825, -177768.721016493, -180050.32003525735, -180851.4959635134, -183189.22021260503, 187500.0, 0.04, -0.014, 1.018, 192.0, 0.0, 0.0, 0.0, 0.0, 0.0, 0.0, 0.0, 0.0, 0.0, 1.6896027847794137E9, 0.0, 2023-07-17 16:06:24.779
67.0, -179382.96400105525, -181099.93560313413, -177825.717964854, -177754.52765876387, -180051.41527073566, -180889.22570815394, -183226.54762584541, 187500.0, 0.034, -0.008, 1.014, 192.0, 1.0, 16.0, 255.0, 192.0, 31.0, 176.0, 0.0, 0.0, 0.0, 1.6896027847794557E9, 0.0, 2023-07-17 16:06:24.779
68.0, -179342.0379569576, -181057.5343439024, -177848.8296686208, -177695.47434991293, -180049.98475909053, -180940.38885121213, -183311.6630687312, 187500.0, 0.034, -0.008, 1.014, 192.0, 0.0, 0.0, 0.0, 0.0, 0.0, 0.0, 0.0, 0.0, 0.0, 1.6896027847794998E9, 0.0, 2023-07-17 16:06:24.779
69.0, -179252.63097913636, -181095.24173679852, -177813.8715402927, -177749.43146102806, -180133.267358931, -180931.49285691892, -183313.42885654318, 187500.0, 0.034, -0.008, 1.014, 192.0, 0.0, 0.0, 0.0, 0.0, 0.0, 0.0, 0.0, 0.0, 0.0, 1.6896027847795882E9, 0.0, 2023-07-17 16:06:24.779
70.0, -179199.67969652172, -181068.0843672853, -177826.54497939887, -177760.8979059336, -180147.90775154924, -180938.57835991125, -183303.48233026057, 187500.0, 0.034, -0.008, 1.014, 192.0, 0.0, 0.0, 0.0, 0.0, 0.0, 0.0, 0.0, 0.0, 0.0, 1.6896027847796297E9, 0.0, 2023-07-17 16:06:24.779
71.0, -179182.35709456887, -181016.04950619335, -177863.91709612813, -177716.3061757453, -180120.68332680265, -180994.1224448827, -183355.45013611915, 187500.0, 0.034, -0.008, 1.014, 192.0, 0.0, 0.0, 0.0, 0.0, 0.0, 0.0, 0.0, 0.0, 0.0, 1.6896027847796707E9, 0.0, 2023-07-17 16:06:24.779
72.0, -179088.7703405345, -181007.68995376705, -177848.51674419842, -177699.63177438162, -180195.9863538726, -181041.23992219448, -183437.48103827014, 187500.0, 0.034, -0.008, 1.014, 192.0, 0.0, 0.0, 0.0, 0.0, 0.0, 0.0, 0.0, 0.0, 0.0, 1.68960278477971E9, 0.0, 2023-07-17 16:06:24.779
73.0, -178993.86483357727, -181031.06987846733, -177819.3700694287, -177755.53348726436, -180250.21168592115, -181007.26527062242, -183404.42280822073, 187500.0, 0.034, -0.008, 1.014, 192.0, 0.0, 0.0, 0.0, 0.0, 0.0, 0.0, 0.0, 0.0, 0.0, 1.6896027847797513E9, 0.0, 2023-07-17 16:06:24.779
74.0, -178943.61811204173, -180978.5656307418, -177840.71598538352, -177747.26334181588, -180233.20200839068, -181020.05046845085, -183398.56665117343, 187500.0, 0.034, -0.008, 1.014, 192.0, 0.0, 0.0, 0.0, 0.0, 0.0, 0.0, 0.0, 0.0, 0.0, 1.6896027847797897E9, 0.0, 2023-07-17 16:06:24.779
75.0, -178937.80665848334, -180944.6580344031, -177884.21248009356, -177692.9486027895, -180221.60145301837, -181085.11639656025, -183477.93769573423, 187500.0, 0.034, -0.008, 1.014, 192.0, 0.0, 0.0, 0.0, 0.0, 0.0, 0.0, 0.0, 0.0, 0.0, 1.689602784779876E9, 0.0, 2023-07-17 16:06:24.779
76.0, -178826.83024726275, -180974.29644755085, -177850.75191864395, -177727.57145495075, -180303.74411389162, -181095.44290249862, -183510.03480077206, 187500.0, 0.034, -0.008, 1.014, 192.0, 0.0, 0.0, 0.0, 0.0, 0.0, 0.0, 0.0, 0.0, 0.0, 1.6896027847799196E9, 0.0, 2023-07-17 16:06:24.779
77.0, -178758.38920574062, -180969.35671202623, -177843.733470885, -177755.5111355199, -180325.7605821801, -181068.8890300857, -183470.22634389717, 187500.0, 0.034, -0.006, 1.01, 192.0, 1.0, 16.0, 255.0, 208.0, 31.0, 144.0, 0.0, 0.0, 0.0, 1.6896027847799623E9, 0.0, 2023-07-17 16:06:24.779
78.0, -178766.88286863363, -180942.8698948467, -177893.3319918313, -177744.4470220145, -180311.23194828414, -181127.27178660297, -183493.60626859742, 187500.0, 0.034, -0.006, 1.01, 192.0, 0.0, 0.0, 0.0, 0.0, 0.0, 0.0, 0.0, 0.0, 0.0, 1.6896027847800078E9, 0.0, 2023-07-17 16:06:24.780
79.0, -178726.5379698918, -180917.27714744536, -177908.6429367832, -177694.62498362362, -180325.067678102, -181176.66914184918, -183579.03463590558, 187500.0, 0.034, -0.006, 1.01, 192.0, 0.0, 0.0, 0.0, 0.0, 0.0, 0.0, 0.0, 0.0, 0.0, 1.689602784780052E9, 0.0, 2023-07-17 16:06:24.780
80.0, -178626.62567217657, -180948.23431351595, -177870.64497120917, -177753.11949886318, -180383.4727863637, -181148.72946128005, -183563.05313862005, 187500.0, 0.034, -0.006, 1.01, 192.0, 0.0, 0.0, 0.0, 0.0, 0.0, 0.0, 0.0, 0.0, 0.0, 1.689602784780094E9, 0.0, 2023-07-17 16:06:24.780
81.0, -178492.11287404454, -180923.26741495938, -177877.81988117934, -177760.18265011106, -180388.77014979962, -181149.40001361372, -183532.78887662757, 187500.0, 0.034, -0.006, 1.01, 192.0, 0.0, 0.0, 0.0, 0.0, 0.0, 0.0, 0.0, 0.0, 0.0, 1.6896027847801347E9, 0.0, 2023-07-17 16:06:24.780
82.0, -178439.89919899695, -180890.67857154354, -177916.8907304872, -177717.69198390152, -180357.7682802401, -181201.3231159834, -183555.6323594609, 187500.0, 0.034, -0.006, 1.01, 192.0, 0.0, 0.0, 0.0, 0.0, 0.0, 0.0, 0.0, 0.0, 0.0, 1.689602784780185E9, 0.0, 2023-07-17 16:06:24.780
83.0, -178367.52425045066, -180872.08192015672, -177936.11323071877, -177699.16238774807, -180410.13841749888, -181262.6339510243, -183648.3473954615, 187500.0, 0.034, -0.006, 1.01, 192.0, 0.0, 0.0, 0.0, 0.0, 0.0, 0.0, 0.0, 0.0, 0.0, 1.6896027847802255E9, 0.0, 2023-07-17 16:06:24.780
84.0, -178282.27469709812, -180910.191644453, -177897.95880293357, -177760.67438848907, -180468.4541187828, -181230.44743900865, -183617.27847066862, 187500.0, 0.034, -0.006, 1.01, 192.0, 0.0, 0.0, 0.0, 0.0, 0.0, 0.0, 0.0, 0.0, 0.0, 1.6896027847802641E9, 0.0, 2023-07-17 16:06:24.780
85.0, -178253.99974036214, -180874.83118472472, -177904.70902975908, -177764.205964113, -180454.3948715204, -181231.56502623143, -183576.57594401552, 187500.0, 0.034, -0.006, 1.01, 192.0, 0.0, 0.0, 0.0, 0.0, 0.0, 0.0, 0.0, 0.0, 0.0, 1.6896027847803037E9, 0.0, 2023-07-17 16:06:24.780
86.0, -178308.6274038109, -180862.22480085192, -177964.27642873247, -177738.99319636743, -180426.00815606216, -181303.29177418852, -183625.6380230949, 187500.0, 0.034, -0.006, 1.01, 192.0, 0.0, 0.0, 0.0, 0.0, 0.0, 0.0, 0.0, 0.0, 0.0, 1.6896027847803445E9, 0.0, 2023-07-17 16:06:24.780
87.0, -178218.84044633395, -180876.5969725367, -177974.33471373733, -177745.78812668184, -180488.347171348, -181343.8601903749, -183704.00323915522, 187500.0, 0.03, -0.01, 1.006, 192.0, 0.0, 240.0, 255.0, 176.0, 31.0, 112.0, 0.0, 0.0, 0.0, 1.6896027847803924E9, 0.0, 2023-07-17 16:06:24.780
88.0, -178147.98541641064, -180891.23736515493, -177926.501980603, -177784.68016203406, -180501.33353487655, -181282.9516867342, -183641.23954072472, 187500.0, 0.03, -0.01, 1.006, 192.0, 0.0, 0.0, 0.0, 0.0, 0.0, 0.0, 0.0, 0.0, 0.0, 1.6896027847804406E9, 0.0, 2023-07-17 16:06:24.780
89.0, -178157.3955008263, -180868.7962137218, -177955.2016204836, -177795.7666272839, -180494.78447375115, -181311.47251265915, -183620.60888059245, 187500.0, 0.03, -0.01, 1.006, 192.0, 0.0, 0.0, 0.0, 0.0, 0.0, 0.0, 0.0, 0.0, 0.0, 1.6896027847805312E9, 0.0, 2023-07-17 16:06:24.780
90.0, -178207.21753921718, -180870.18202187802, -177999.86040590532, -177758.32745532127, -180459.4016622784, -181345.42481248674, -183678.0081603537, 187500.0, 0.03, -0.01, 1.006, 192.0, 0.0, 0.0, 0.0, 0.0, 0.0, 0.0, 0.0, 0.0, 0.0, 1.6896027847805688E9, 0.0, 2023-07-17 16:06:24.780
91.0, -178179.97076272618, -180920.2946329468, -177963.67293163217, -177802.3156884093, -180472.65624674037, -181297.27915493003, -183645.46402042676, 187500.0, 0.03, -0.01, 1.006, 192.0, 0.0, 0.0, 0.0, 0.0, 0.0, 0.0, 0.0, 0.0, 0.0, 1.6896027847806063E9, 0.0, 2023-07-17 16:06:24.780
92.0, -178170.6500852883, -180913.4997026324, -177961.7059781201, -177826.54497939887, -180463.8049559361, -181288.56197459245, -183592.0209994341, 187500.0, 0.03, -0.01, 1.006, 192.0, 0.0, 0.0, 0.0, 0.0, 0.0, 0.0, 0.0, 0.0, 0.0, 1.6896027847806444E9, 0.0, 2023-07-17 16:06:24.780
93.0, -178231.2680162511, -180908.62702234116, -178005.31423155242, -177799.14174069665, -180424.42118220584, -181332.03611755802, -183627.40381090686, 187500.0, 0.03, -0.01, 1.006, 192.0, 0.0, 0.0, 0.0, 0.0, 0.0, 0.0, 0.0, 0.0, 0.0, 1.6896027847806857E9, 0.0, 2023-07-17 16:06:24.780
94.0, -178229.18930401676, -180947.63081641565, -177979.3191527509, -177814.89972053765, -180417.49214142468, -181307.15862597927, -183622.53113061562, 187500.0, 0.03, -0.01, 1.006, 192.0, 0.0, 0.0, 0.0, 0.0, 0.0, 0.0, 0.0, 0.0, 0.0, 1.6896027847807283E9, 0.0, 2023-07-17 16:06:24.780
95.0, -178222.6178911469, -180963.32174102328, -177970.37845496877, -177849.723738399, -180411.41246693284, -181268.31129411593, -183553.06190884853, 187500.0, 0.03, -0.01, 1.006, 192.0, 0.0, 0.0, 0.0, 0.0, 0.0, 0.0, 0.0, 0.0, 0.0, 1.6896027847807708E9, 0.0, 2023-07-17 16:06:24.780
96.0, -178257.19603981925, -180945.2168280145, -178008.39877228724, -177833.40696494663, -180379.60593457293, -181307.71741959066, -183567.41172878884, 187500.0, 0.03, -0.01, 1.006, 192.0, 0.0, 0.0, 0.0, 0.0, 0.0, 0.0, 0.0, 0.0, 0.0, 1.6896027847808137E9, 0.0, 2023-07-17 16:06:24.780
97.0, -178304.9393659758, -180969.13319458166, -177998.02756285996, -177814.720906582, -180369.4805943347, -181302.95649802167, -183585.9860284312, 187500.0, 0.03, -0.006, 1.006, 192.0, 0.0, 240.0, 255.0, 208.0, 31.0, 112.0, 0.0, 0.0, 0.0, 1.6896027847808564E9, 0.0, 2023-07-17 16:06:24.780
98.0, -178321.27849117262, -180981.1137296097, -177953.77110883847, -177846.8850668532, -180353.02971041558, -181250.8769334408, -183497.16019596581, 187500.0, 0.03, -0.006, 1.006, 192.0, 0.0, 0.0, 0.0, 0.0, 0.0, 0.0, 0.0, 0.0, 0.0, 1.6896027847809012E9, 0.0, 2023-07-17 16:06:24.780
99.0, -178352.83915434353, -180972.37419752768, -177976.97221958308, -177836.5809126593, -180321.0220123556, -181274.6815412857, -183505.58680362545, 187500.0, 0.03, -0.006, 1.006, 192.0, 0.0, 0.0, 0.0, 0.0, 0.0, 0.0, 0.0, 0.0, 0.0, 1.6896027847809446E9, 0.0, 2023-07-17 16:06:24.780
100.0, -178431.7184605263, -181019.8269510063, -177967.42802470067, -177813.53626412587, -180295.58572716545, -181246.56304676094, -183504.17864372476, 187500.0, 0.03, -0.006, 1.006, 192.0, 0.0, 0.0, 0.0, 0.0, 0.0, 0.0, 0.0, 0.0, 0.0, 1.6896027847809877E9, 0.0, 2023-07-17 16:06:24.780
101.0, -178463.94967603084, -181041.61990185024, -177932.71576556156, -177848.740261643, -180282.10762525888, -181196.29397348096, -183428.04860211, 187500.0, 0.03, -0.006, 1.006, 192.0, 0.0, 0.0, 0.0, 0.0, 0.0, 0.0, 0.0, 0.0, 0.0, 1.689602784781032E9, 0.0, 2023-07-17 16:06:24.781
102.0, -178489.00598156525, -181022.24093940746, -177968.12092877878, -177840.29130223888, -180243.08147943992, -181219.76330515902, -183449.23805585364, 187500.0, 0.03, -0.006, 1.006, 192.0, 0.0, 0.0, 0.0, 0.0, 0.0, 0.0, 0.0, 0.0, 0.0, 1.6896027847810757E9, 0.0, 2023-07-17 16:06:24.781
103.0, -178564.66663654646, -181073.7393586325, -177961.81773684238, -177841.11831678372, -180251.5527905885, -181213.1695405447, -183462.0456054265, 187500.0, 0.03, -0.006, 1.006, 192.0, 0.0, 0.0, 0.0, 0.0, 0.0, 0.0, 0.0, 0.0, 0.0, 1.689602784781119E9, 0.0, 2023-07-17 16:06:24.781
104.0, -178578.27884891976, -181086.65866692766, -177927.01607072545, -177874.66828521114, -180244.57904631842, -181167.19200220014, -183392.6881423817, 187500.0, 0.03, -0.006, 1.006, 192.0, 0.0, 0.0, 0.0, 0.0, 0.0, 0.0, 0.0, 0.0, 0.0, 1.6896027847812197E9, 0.0, 2023-07-17 16:06:24.781
105.0, -178604.4527416769, -181069.96191381954, -177956.11804200627, -177861.79368040487, -180207.72101971164, -181192.49417692356, -183416.76097116005, 187500.0, 0.03, -0.006, 1.006, 192.0, 0.0, 0.0, 0.0, 0.0, 0.0, 0.0, 0.0, 0.0, 0.0, 1.6896027847812657E9, 0.0, 2023-07-17 16:06:24.781
106.0, -178674.45840531093, -181121.12505687776, -177943.62341685576, -177841.40888946163, -180204.61412723234, -181168.64486558974, -183416.33628801542, 187500.0, 0.03, -0.006, 1.006, 192.0, 0.0, 0.0, 0.0, 0.0, 0.0, 0.0, 0.0, 0.0, 0.0, 1.68960278478131E9, 0.0, 2023-07-17 16:06:24.781
107.0, -178690.03757119627, -181134.2008273841, -177912.57684380733, -177867.29220954087, -180203.29537430947, -181123.56139702338, -183351.85150526185, 187500.0, 0.034, -0.008, 1.01, 192.0, 1.0, 16.0, 255.0, 192.0, 31.0, 144.0, 0.0, 0.0, 0.0, 1.68960278478135E9, 0.0, 2023-07-17 16:06:24.781
108.0, -178710.84704528417, -181114.28542307444, -177946.21621921257, -177851.15425004414, -180175.0874728069, -181150.85287700332, -183379.4335579197, 187500.0, 0.034, -0.008, 1.01, 192.0, 0.0, 0.0, 0.0, 0.0, 0.0, 0.0, 0.0, 0.0, 0.0, 1.689602784781397E9, 0.0, 2023-07-17 16:06:24.781
109.0, -178775.08595884874, -181158.3630631403, -177928.58069283733, -177831.75293585693, -180164.6715598907, -181123.98608016802, -183372.39275841627, 187500.0, 0.034, -0.008, 1.01, 192.0, 0.0, 0.0, 0.0, 0.0, 0.0, 0.0, 0.0, 0.0, 0.0, 1.6896027847814345E9, 0.0, 2023-07-17 16:06:24.781
110.0, -178783.51256650838, -181168.13077546726, -177894.9413174321, -177862.10660482725, -180161.34114996687, -181080.51193720245, -183306.09748436185, 187500.0, 0.034, -0.008, 1.01, 192.0, 0.0, 0.0, 0.0, 0.0, 0.0, 0.0, 0.0, 0.0, 0.0, 1.689602784781474E9, 0.0, 2023-07-17 16:06:24.781
111.0, -178812.6592412781, -181149.4670688471, -177926.0996492028, -177842.5711801733, -180121.28682390295, -181102.77427467995, -183336.4735050766, 187500.0, 0.034, -0.008, 1.01, 192.0, 0.0, 0.0, 0.0, 0.0, 0.0, 0.0, 0.0, 0.0, 0.0, 1.6896027847815113E9, 0.0, 2023-07-17 16:06:24.781
112.0, -178874.7300356305, -181195.37755195829, -177906.63127978222, -177837.3185202263, -180117.4199721122, -181071.01244580894, -183312.78065595397, 187500.0, 0.034, -0.008, 1.01, 192.0, 0.0, 0.0, 0.0, 0.0, 0.0, 0.0, 0.0, 0.0, 0.0, 1.6896027847815514E9, 0.0, 2023-07-17 16:06:24.781
113.0, -178870.6173146507, -181190.4601681781, -177885.55358476087, -177866.73341592948, -180120.34805063583, -181035.38376514718, -183262.01984429598, 187500.0, 0.034, -0.008, 1.01, 192.0, 0.0, 0.0, 0.0, 0.0, 0.0, 0.0, 0.0, 0.0, 0.0, 1.6896027847815883E9, 0.0, 2023-07-17 16:06:24.781
114.0, -178896.47828298548, -181172.84699354734, -177922.12103868974, -177830.7694591009, -180081.63482923925, -181064.35162596128, -183298.25202205803, 187500.0, 0.034, -0.008, 1.01, 192.0, 0.0, 0.0, 0.0, 0.0, 0.0, 0.0, 0.0, 0.0, 0.0, 1.689602784781626E9, 0.0, 2023-07-17 16:06:24.781
115.0, -178962.97472274004, -181231.98970937607, -177904.37375359223, -177842.10179353974, -180096.23051836857, -181048.727756587, -183285.57858295186, 187500.0, 0.034, -0.008, 1.01, 192.0, 0.0, 0.0, 0.0, 0.0, 0.0, 0.0, 0.0, 0.0, 0.0, 1.6896027847816656E9, 0.0, 2023-07-17 16:06:24.781
116.0, -178960.31486514985, -181223.45134299414, -177890.5827272633, -177871.98607587648, -180094.97882067907, -181015.24484339295, -183242.08208824185, 187500.0, 0.034, -0.008, 1.01, 192.0, 0.0, 0.0, 0.0, 0.0, 0.0, 0.0, 0.0, 0.0, 0.0, 1.6896027847817032E9, 0.0, 2023-07-17 16:06:24.781
117.0, -178994.75890335548, -181210.44262772115, -177913.8955967302, -177840.24659874995, -180057.11496557176, -181029.14762844416, -183268.7700711215, 187500.0, 0.036000000000000004, -0.01, 1.012, 192.0, 1.0, 32.0, 255.0, 176.0, 31.0, 160.0, 0.0, 0.0, 0.0, 1.6896027847817404E9, 0.0, 2023-07-17 16:06:24.781
118.0, -179064.3622355893, -181263.75153824707, -177884.99479114948, -177857.8821251252, -180065.67568369815, -180983.5053662664, -183221.2502624095, 187500.0, 0.036000000000000004, -0.01, 1.012, 192.0, 0.0, 0.0, 0.0, 0.0, 0.0, 0.0, 0.0, 0.0, 0.0, 1.68960278478178E9, 0.0, 2023-07-17 16:06:24.781
119.0, -179064.6081047783, -181253.9838259201, -177899.8810529567, -177883.07254112634, -180071.97887563455, -180977.0680638633, -183203.97236394553, 187500.0, 0.036000000000000004, -0.01, 1.012, 192.0, 0.0, 0.0, 0.0, 0.0, 0.0, 0.0, 0.0, 0.0, 0.0, 1.689602784782034E9, 0.0, 2023-07-17 16:06:24.782
120.0, -179118.09582925987, -181257.76127073306, -177924.73619279102, -177855.5351919574, -180044.12860204323, -180999.4198083186, -183235.37656490525, 187500.0, 0.036000000000000004, -0.01, 1.012, 192.0, 0.0, 0.0, 0.0, 0.0, 0.0, 0.0, 0.0, 0.0, 0.0, 1.6896027847820795E9, 0.0, 2023-07-17 16:06:24.782
121.0, -179164.69921644917, -181295.2451461846, -177890.40391330767, -177879.69742771357, -180036.12667752823, -180951.07298506176, -183169.8859536512, 187500.0, 0.036000000000000004, -0.01, 1.012, 192.0, 0.0, 0.0, 0.0, 0.0, 0.0, 0.0, 0.0, 0.0, 0.0, 1.6896027852547653E9, 0.0, 2023-07-17 16:06:25.254
122.0, -179165.36976878284, -181264.3326836029, -177896.17066337712, -177879.89859341367, -180007.69525858108, -180942.2663977464, -183146.7295463955, 187500.0, 0.036000000000000004, -0.01, 1.012, 192.0, 0.0, 0.0, 0.0, 0.0, 0.0, 0.0, 0.0, 0.0, 0.0, 1.6896027852548764E9, 0.0, 2023-07-17 16:06:25.254
123.0, -179257.39190070535, -181292.27236417204, -177916.77897176493, -177870.51086074245, -179976.06754017682, -180932.8116098418, -183144.1367440387, 187500.0, 0.036000000000000004, -0.01, 1.012, 192.0, 0.0, 0.0, 0.0, 0.0, 0.0, 0.0, 0.0, 0.0, 0.0, 1.6896027852549446E9, 0.0, 2023-07-17 16:06:25.254
124.0, -179303.324735561, -181315.294660961, -177896.95297443308, -177908.5982332943, -179974.10058666475, -180884.28597262932, -183083.27294388687, 187500.0, 0.036000000000000004, -0.01, 1.012, 192.0, 0.0, 0.0, 0.0, 0.0, 0.0, 0.0, 0.0, 0.0, 0.0, 1.689602785255008E9, 0.0, 2023-07-17 16:06:25.255
125.0, -179327.68813701728, -181293.03232348352, -177911.57101530684, -177893.0861226423, -179951.1676968536, -180896.33356289074, -183089.50908058992, 187500.0, 0.036000000000000004, -0.01, 1.012, 192.0, 0.0, 0.0, 0.0, 0.0, 0.0, 0.0, 0.0, 0.0, 0.0, 1.6896027852550716E9, 0.0, 2023-07-17 16:06:25.255
126.0, -179437.59166450403, -181347.6599869323, -177909.2464338835, -177900.01516342346, -179940.4165077706, -180860.950751418, -183059.2001151085, 187500.0, 0.036000000000000004, -0.01, 1.012, 192.0, 0.0, 0.0, 0.0, 0.0, 0.0, 0.0, 0.0, 0.0, 0.0, 1.6896027852551146E9, 0.0, 2023-07-17 16:06:25.255
127.0, -179469.88993524195, -181357.45005100372, -177913.001526952, -177939.53304762044, -179933.57687396728, -180839.5824837187, -183014.54132968682, 187500.0, 0.028, -0.008, 1.004, 192.0, 0.0, 224.0, 255.0, 192.0, 31.0, 96.0, 0.0, 0.0, 0.0, 1.68960278525516E9, 0.0, 2023-07-17 16:06:25.255
128.0, -179525.50107544675, -181345.9165508648, -177911.86158798475, -177925.33968989132, -179872.82483253776, -180823.60098643316, -182997.28578296732, 187500.0, 0.028, -0.008, 1.004, 192.0, 0.0, 0.0, 0.0, 0.0, 0.0, 0.0, 0.0, 0.0, 0.0, 1.6896027852552056E9, 0.0, 2023-07-17 16:06:25.255
129.0, -179592.26573613475, -181383.13220538286, -177893.39904706468, -177954.48636466105, -179863.05712021078, -180769.17448868448, -182943.5298375523, 187500.0, 0.028, -0.008, 1.004, 192.0, 0.0, 0.0, 0.0, 0.0, 0.0, 0.0, 0.0, 0.0, 0.0, 1.6896027852552476E9, 0.0, 2023-07-17 16:06:25.255
130.0, -179582.69918950787, -181348.3975944993, -177904.37375359223, -177937.63314934174, -179841.17476238904, -180763.161869426, -182933.6280147586, 187500.0, 0.028, -0.008, 1.004, 192.0, 0.0, 0.0, 0.0, 0.0, 0.0, 0.0, 0.0, 0.0, 0.0, 1.6896027852552905E9, 0.0, 2023-07-17 16:06:25.255
131.0, -179654.31417874267, -181374.99617040114, -177895.5448145324, -177923.23862591252, -179825.953224415, -180755.07053793318, -182937.04783166025, 187500.0, 0.028, -0.008, 1.004, 192.0, 0.0, 0.0, 0.0, 0.0, 0.0, 0.0, 0.0, 0.0, 0.0, 1.6896027852553327E9, 0.0, 2023-07-17 16:06:25.255
132.0, -179674.83308015266, -181389.815376975, -177884.16777660465, -177953.9499227941, -179838.4031460766, -180733.8587324451, -182894.80303463974, 187500.0, 0.028, -0.008, 1.004, 192.0, 0.0, 0.0, 0.0, 0.0, 0.0, 0.0, 0.0, 0.0, 0.0, 1.689602785255381E9, 0.0, 2023-07-17 16:06:25.255
133.0, -179700.0681996427, -181373.85623143392, -177911.28044262892, -177934.01216673997, -179824.7015267255, -180755.7634420113, -182926.40840129953, 187500.0, 0.028, -0.008, 1.004, 192.0, 0.0, 0.0, 0.0, 0.0, 0.0, 0.0, 0.0, 0.0, 0.0, 1.689602785255425E9, 0.0, 2023-07-17 16:06:25.255
134.0, -179763.5918573847, -181411.98830747468, -177881.01618063645, -177936.26969292996, -179826.66848023757, -180735.0210231568, -182909.9128138915, 187500.0, 0.028, -0.008, 1.004, 192.0, 0.0, 0.0, 0.0, 0.0, 0.0, 0.0, 0.0, 0.0, 0.0, 1.6896027852556639E9, 0.0, 2023-07-17 16:06:25.255
135.0, -179763.21187772893, -181393.7716357436, -177890.3368580743, -177957.68266411815, -179824.3886023031, -180734.3728225676, -182883.09072054515, 187500.0, 0.028, -0.008, 1.004, 192.0, 0.0, 0.0, 0.0, 0.0, 0.0, 0.0, 0.0, 0.0, 0.0, 1.6896027852557175E9, 0.0, 2023-07-17 16:06:25.255
136.0, -179817.95129989999, -181384.98740017266, -177894.1366546317, -177938.5495708644, -179774.07482553422, -180724.67216547398, -182889.55037469274, 187500.0, 0.028, -0.008, 1.004, 192.0, 0.0, 0.0, 0.0, 0.0, 0.0, 0.0, 0.0, 0.0, 0.0, 1.6896027852557757E9, 0.0, 2023-07-17 16:06:25.255
137.0, -179855.03284395134, -181408.90376673982, -177865.70523568455, -177966.08692003333, -179783.10493029415, -180684.48372894333, -182847.57379860568, 187500.0, 0.042, -0.02, 1.004, 192.0, 1.0, 80.0, 255.0, 96.0, 31.0, 96.0, 0.0, 0.0, 0.0, 1.6896027852558289E9, 0.0, 2023-07-17 16:06:25.255
138.0, -179842.71703275645, -181374.12445236737, -177884.70421847157, -177945.746832579, -179771.81729934423, -180697.58185119415, -182859.7554993338, 187500.0, 0.042, -0.02, 1.004, 192.0, 0.0, 0.0, 0.0, 0.0, 0.0, 0.0, 0.0, 0.0, 0.0, 1.689602785255888E9, 0.0, 2023-07-17 16:06:25.255
139.0, -179891.3097252023, -181394.822167733, -177878.06575036835, -177934.92858826264, -179767.7939853423, -180699.36999075057, -182889.37156073708, 187500.0, 0.042, -0.02, 1.004, 192.0, 0.0, 0.0, 0.0, 0.0, 0.0, 0.0, 0.0, 0.0, 0.0, 1.6896027852559328E9, 0.0, 2023-07-17 16:06:25.255
140.0, -179886.63821061116, -181396.1185689114, -177863.15713681665, -177967.1151002783, -179785.11658729514, -180687.45651095588, -182853.4523073974, 187500.0, 0.042, -0.02, 1.004, 192.0, 0.0, 0.0, 0.0, 0.0, 0.0, 0.0, 0.0, 0.0, 0.0, 1.6896027852559788E9, 0.0, 2023-07-17 16:06:25.255
141.0, -179878.77039656288, -181358.34412078193, -177869.90736364215, -177915.25905314198, -179755.70169159197, -180695.21256628187, -182870.28317097225, 187500.0, 0.042, -0.02, 1.004, 192.0, 0.0, 0.0, 0.0, 0.0, 0.0, 0.0, 0.0, 0.0, 0.0, 1.6896027852560306E9, 0.0, 2023-07-17 16:06:25.256
142.0, -179933.4204117561, -181405.72981902718, -177850.17077328812, -177922.1433904342, -179779.59570641466, -180682.02503705324, -182875.42407219697, 187500.0, 0.042, -0.02, 1.004, 192.0, 0.0, 0.0, 0.0, 0.0, 0.0, 0.0, 0.0, 0.0, 0.0, 1.6896027852560687E9, 0.0, 2023-07-17 16:06:25.256
143.0, -179908.475864944, -181379.80179545903, -177864.69940718406, -177929.67592831564, -179790.77157864234, -180691.7480458913, -182869.05382502722, 187500.0, 0.042, -0.02, 1.004, 192.0, 0.0, 0.0, 0.0, 0.0, 0.0, 0.0, 0.0, 0.0, 0.0, 1.6896027852561157E9, 0.0, 2023-07-17 16:06:25.256
144.0, -179905.4583794425, -181354.87960039134, -177866.37578801822, -177859.08911932577, -179774.74537786786, -180712.42340951247, -182917.93709015098, 187500.0, 0.042, -0.02, 1.004, 192.0, 0.0, 0.0, 0.0, 0.0, 0.0, 0.0, 0.0, 0.0, 0.0, 1.6896027852561543E9, 0.0, 2023-07-17 16:06:25.256
145.0, -179899.4681119285, -181376.51608902408, -177809.62470884618, -177871.24846830947, -179801.6345264476, -180676.52650791724, -182889.93035434847, 187500.0, 0.042, -0.02, 1.004, 192.0, 0.0, 0.0, 0.0, 0.0, 0.0, 0.0, 0.0, 0.0, 0.0, 1.6896027852561948E9, 0.0, 2023-07-17 16:06:25.256
146.0, -179850.54014331583, -181338.07108856097, -177827.75197359946, -177873.32718054383, -179827.9872331604, -180690.85397611308, -182907.58823246817, 187500.0, 0.042, -0.02, 1.004, 192.0, 0.0, 0.0, 0.0, 0.0, 0.0, 0.0, 0.0, 0.0, 0.0, 1.6896027852562425E9, 0.0, 2023-07-17 16:06:25.256
147.0, -179847.88028572564, -181316.9486900507, -177846.16981103062, -177808.10479022324, -179814.95616614298, -180729.3660318096, -182970.3742826431, 187500.0, 0.042, -0.016, 1.002, 192.0, 1.0, 80.0, 255.0, 128.0, 31.0, 80.0, 0.0, 0.0, 0.0, 1.6896027852562885E9, 0.0, 2023-07-17 16:06:25.256
148.0, -179849.6013700487, -181353.44908874622, -177799.90170000814, -177835.26215973642, -179855.52458232935, -180715.17267408047, -182955.33155862472, 187500.0, 0.042, -0.016, 1.002, 192.0, 0.0, 0.0, 0.0, 0.0, 0.0, 0.0, 0.0, 0.0, 0.0, 1.6896027852564523E9, 0.0, 2023-07-17 16:06:25.256
149.0, -179813.3468405422, -181324.5482831655, -177828.2660637219, -177853.6352936787, -179874.41180639408, -180741.72654649336, -182974.7775763008, 187500.0, 0.042, -0.016, 1.002, 192.0, 0.0, 0.0, 0.0, 0.0, 0.0, 0.0, 0.0, 0.0, 0.0, 1.6896027852564962E9, 0.0, 2023-07-17 16:06:25.256
150.0, -179833.17283787404, -181320.68143137475, -177850.21547677703, -177814.18446471507, -179862.72184404396, -180776.23763993237, -183030.07579208325, 187500.0, 0.042, -0.016, 1.002, 192.0, 0.0, 0.0, 0.0, 0.0, 0.0, 0.0, 0.0, 0.0, 0.0, 1.6896027852565384E9, 0.0, 2023-07-17 16:06:25.256
151.0, -179841.42063157805, -181352.82323990145, -177798.15826394063, -177836.1338777702, -179884.06775999878, -180738.910226692, -182988.3003816963, 187500.0, 0.042, -0.016, 1.002, 192.0, 0.0, 0.0, 0.0, 0.0, 0.0, 0.0, 0.0, 0.0, 0.0, 1.68960278525658E9, 0.0, 2023-07-17 16:06:25.256
152.0, -179797.85708163466, -181308.76795158006, -177814.475037393, -177831.9764533015, -179886.59350712222, -180747.53800005175, -182996.72698935593, 187500.0, 0.042, -0.016, 1.002, 192.0, 0.0, 0.0, 0.0, 0.0, 0.0, 0.0, 0.0, 0.0, 0.0, 1.689602785256627E9, 0.0, 2023-07-17 16:06:25.256
153.0, -179803.37796251514, -181295.55807060696, -177824.28745320888, -177775.78416774084, -179871.72959705946, -180765.419395616, -183035.37315551916, 187500.0, 0.042, -0.016, 1.002, 192.0, 0.0, 0.0, 0.0, 0.0, 0.0, 0.0, 0.0, 0.0, 0.0, 1.6896027852566807E9, 0.0, 2023-07-17 16:06:25.256
154.0, -179813.45859926447, -181325.53175992155, -177778.2652113754, -177806.47311287798, -179890.8626903132, -180735.33394757914, -182985.21584096146, 187500.0, 0.042, -0.016, 1.002, 192.0, 0.0, 0.0, 0.0, 0.0, 0.0, 0.0, 0.0, 0.0, 0.0, 1.6896027852567272E9, 0.0, 2023-07-17 16:06:25.256
155.0, -179772.71136912244, -181279.4871663436, -177796.77245578438, -177795.31959239478, -179873.13775696015, -180747.94033145194, -182990.5355561418, 187500.0, 0.042, -0.016, 1.002, 192.0, 0.0, 0.0, 0.0, 0.0, 0.0, 0.0, 0.0, 0.0, 0.0, 1.6896027852567809E9, 0.0, 2023-07-17 16:06:25.256
156.0, -179778.6345814031, -181273.2957331295, -177798.47118836298, -177743.73176619195, -179854.63051255114, -180759.07150019068, -183022.16327454607, 187500.0, 0.042, -0.016, 1.002, 192.0, 0.0, 0.0, 0.0, 0.0, 0.0, 0.0, 0.0, 0.0, 0.0, 1.6896027852568321E9, 0.0, 2023-07-17 16:06:25.256
157.0, -179784.11075879465, -181307.11392249036, -177765.59177226922, -177783.89785097813, -179893.701361859, -180738.37378482506, -182995.92232655553, 187500.0, 0.034, -0.02, 1.0, 192.0, 1.0, 16.0, 255.0, 96.0, 31.0, 64.0, 0.0, 0.0, 0.0, 1.689602785256883E9, 0.0, 2023-07-17 16:06:25.256
158.0, -179733.99814772586, -181257.023663166, -177802.24863317594, -177771.04559791632, -179895.24363222643, -180769.2191921734, -183037.2954055423, 187500.0, 0.034, -0.02, 1.0, 192.0, 0.0, 0.0, 0.0, 0.0, 0.0, 0.0, 0.0, 0.0, 0.0, 1.68960278525694E9, 0.0, 2023-07-17 16:06:25.256
159.0, -179745.3751856536, -181252.84388695288, -177825.94148229857, -177748.13505984965, -179923.36212675122, -180823.42217247753, -183111.07851398928, 187500.0, 0.034, -0.02, 1.0, 192.0, 0.0, 0.0, 0.0, 0.0, 0.0, 0.0, 0.0, 0.0, 0.0, 1.6896027852569845E9, 0.0, 2023-07-17 16:06:25.256
160.0, -179726.19738891095, -181261.35990159036, -177783.18259515555, -177790.15633942562, -179949.13368810818, -180791.05684650622, -183065.68212100054, 187500.0, 0.034, -0.02, 1.0, 192.0, 0.0, 0.0, 0.0, 0.0, 0.0, 0.0, 0.0, 0.0, 0.0, 1.689602785257042E9, 0.0, 2023-07-17 16:06:25.257
161.0, -179684.3102198017, -181219.2268632921, -177803.50033086544, -177778.28756311984, -179935.05208910134, -180799.3716954436, -183076.27684787236, 187500.0, 0.034, -0.02, 1.0, 192.0, 0.0, 0.0, 0.0, 0.0, 0.0, 0.0, 0.0, 0.0, 0.0, 1.6896027852570913E9, 0.0, 2023-07-17 16:06:25.257
162.0, -179743.69880481946, -181249.60288400686, -177814.40798215964, -177772.3643508392, -179924.74793490744, -180796.64478262005, -183087.36331312222, 187500.0, 0.034, -0.02, 1.0, 192.0, 0.0, 0.0, 0.0, 0.0, 0.0, 0.0, 0.0, 0.0, 0.0, 1.6896027852571363E9, 0.0, 2023-07-17 16:06:25.257
163.0, -179747.2303804434, -181258.90120970027, -177780.50038582092, -177799.00763022993, -179911.29218474534, -180746.55452329572, -183013.93783258653, 187500.0, 0.034, -0.02, 1.0, 192.0, 0.0, 0.0, 0.0, 0.0, 0.0, 0.0, 0.0, 0.0, 0.0, 1.6896027852572973E9, 0.0, 2023-07-17 16:06:25.257
164.0, -179761.44608991698, -181246.40658454975, -177826.99201428797, -177796.25836566192, -179884.1124634877, -180765.53115433827, -183021.60448093468, 187500.0, 0.034, -0.02, 1.0, 192.0, 0.0, 0.0, 0.0, 0.0, 0.0, 0.0, 0.0, 0.0, 0.0, 1.6896027852573557E9, 0.0, 2023-07-17 16:06:25.257
165.0, -179833.97750067443, -181293.61346883935, -177807.83656928976, -177801.77924654237, -179881.3631989197, -180756.59045655615, -183005.62298364914, 187500.0, 0.034, -0.02, 1.0, 192.0, 0.0, 0.0, 0.0, 0.0, 0.0, 0.0, 0.0, 0.0, 0.0, 1.6896027852573967E9, 0.0, 2023-07-17 16:06:25.257
166.0, -179831.4964570399, -181295.42396014024, -177815.63732810467, -177842.30295923984, -179894.19310023703, -180749.19202914144, -182983.5394601273, 187500.0, 0.034, -0.02, 1.0, 192.0, 0.0, 0.0, 0.0, 0.0, 0.0, 0.0, 0.0, 0.0, 0.0, 1.6896027852574346E9, 0.0, 2023-07-17 16:06:25.257
167.0, -179841.1524106446, -181274.1450994188, -177832.95993005752, -177807.25542393394, -179851.56832356076, -180756.94808446744, -183000.07975102423, 187500.0, 0.032, -0.016, 1.006, 192.0, 1.0, 0.0, 255.0, 128.0, 31.0, 112.0, 0.0, 0.0, 0.0, 1.689602785257474E9, 0.0, 2023-07-17 16:06:25.257
168.0, -179873.78595754935, -181308.23150971314, -177802.44979887604, -177827.26023522142, -179856.68687304104, -180726.1697323525, -182968.07205296424, 187500.0, 0.032, -0.016, 1.006, 192.0, 0.0, 0.0, 0.0, 0.0, 0.0, 0.0, 0.0, 0.0, 0.0, 1.6896027852575312E9, 0.0, 2023-07-17 16:06:25.257
169.0, -179848.88611422613, -181286.41620712474, -177813.4692088925, -177838.9278458271, -179861.00075972092, -180731.0647643882, -182958.2819888928, 187500.0, 0.032, -0.016, 1.006, 192.0, 0.0, 0.0, 0.0, 0.0, 0.0, 0.0, 0.0, 0.0, 0.0, 1.68960278525768E9, 0.0, 2023-07-17 16:06:25.257
170.0, -179883.24074545395, -181295.13338746232, -177817.6713368501, -177792.63738306015, -179835.3409570862, -180725.87915967454, -182975.3363699122, 187500.0, 0.032, -0.016, 1.006, 192.0, 0.0, 0.0, 0.0, 0.0, 0.0, 0.0, 0.0, 0.0, 0.0, 1.6896027852577417E9, 0.0, 2023-07-17 16:06:25.257
171.0, -179926.87135063068, -181338.71928915018, -177811.1669792136, -177843.4205464626, -179863.95118998902, -180711.73050543436, -182946.21204688694, 187500.0, 0.032, -0.016, 1.006, 192.0, 0.0, 0.0, 0.0, 0.0, 0.0, 0.0, 0.0, 0.0, 0.0, 1.6896027852577872E9, 0.0, 2023-07-17 16:06:25.257
172.0, -179897.59056539423, -181301.50363463207, -177839.64310164968, -177838.05612779333, -179863.45945161098, -180738.910226692, -182972.52005011085, 187500.0, 0.032, -0.016, 1.006, 192.0, 0.0, 0.0, 0.0, 0.0, 0.0, 0.0, 0.0, 0.0, 0.0, 1.689602785257838E9, 0.0, 2023-07-17 16:06:25.257
173.0, -179929.26298728742, -181319.11680926286, -177832.84817133527, -177803.43327563207, -179853.55762881727, -180741.39127032654, -182990.31203869727, 187500.0, 0.032, -0.016, 1.006, 192.0, 0.0, 0.0, 0.0, 0.0, 0.0, 0.0, 0.0, 0.0, 0.0, 1.689602785257876E9, 0.0, 2023-07-17 16:06:25.257
174.0, -179923.60799594023, -181327.23049250015, -177807.65775533413, -177839.39723246064, -179858.29619864182, -180702.36512450757, -182932.3316135802, 187500.0, 0.032, -0.016, 1.006, 192.0, 0.0, 0.0, 0.0, 0.0, 0.0, 0.0, 0.0, 0.0, 0.0, 1.6896027852579427E9, 0.0, 2023-07-17 16:06:25.257
175.0, -179933.0180803559, -181306.10809398987, -177847.39915697565, -177831.5294184124, -179831.22823610643, -180717.78782818172, -182946.34615735366, 187500.0, 0.032, -0.016, 1.006, 192.0, 0.0, 0.0, 0.0, 0.0, 0.0, 0.0, 0.0, 0.0, 0.0, 1.6896027852580056E9, 0.0, 2023-07-17 16:06:25.258
176.0, -180000.40858988866, -181344.77661189754, -177837.4302789486, -177843.80052611834, -179815.35849754317, -180690.98808657983, -182927.70480247794, 187500.0, 0.032, -0.016, 1.006, 192.0, 0.0, 0.0, 0.0, 0.0, 0.0, 0.0, 0.0, 0.0, 0.0, 1.689602785258051E9, 0.0, 2023-07-17 16:06:25.258
177.0, -179974.8828977207, -181325.4870564326, -177837.20676150403, -177856.00457859095, -179815.80553243228, -180684.72959813234, -182897.2170230409, 187500.0, 0.034, -0.012, 1.008, 192.0, 1.0, 16.0, 255.0, 160.0, 31.0, 128.0, 0.0, 0.0, 0.0, 1.689602785258096E9, 0.0, 2023-07-17 16:06:25.258
178.0, -179970.8372319743, -181300.27428868704, -177851.84715412225, -177792.14564468214, -179795.01841008884, -180719.64302297152, -182942.70282300745, 187500.0, 0.034, -0.012, 1.008, 192.0, 0.0, 0.0, 0.0, 0.0, 0.0, 0.0, 0.0, 0.0, 0.0, 1.689602785258334E9, 0.0, 2023-07-17 16:06:25.258
179.0, -179981.11903442373, -181330.06916404597, -177795.87838600617, -177801.86865352019, -179812.20690157497, -180691.43512146894, -182920.86516867462, 187500.0, 0.034, -0.012, 1.008, 192.0, 0.0, 0.0, 0.0, 0.0, 0.0, 0.0, 0.0, 0.0, 0.0, 1.6896027852583816E9, 0.0, 2023-07-17 16:06:25.258
180.0, -179925.19496979655, -181284.62806756832, -177803.03094423187, -177802.13687445366, -179813.9950411314, -180685.82483361065, -182913.176168582, 187500.0, 0.034, -0.012, 1.008, 192.0, 0.0, 0.0, 0.0, 0.0, 0.0, 0.0, 0.0, 0.0, 0.0, 1.689602785258427E9, 0.0, 2023-07-17 16:06:25.258
181.0, -179927.02781284187, -181274.5921343079, -177817.09019149427, -177759.3556355662, -179793.72200891044, -180709.92001413347, -182964.74164304038, 187500.0, 0.034, -0.012, 1.008, 192.0, 0.0, 0.0, 0.0, 0.0, 0.0, 0.0, 0.0, 0.0, 0.0, 1.6896027852584796E9, 0.0, 2023-07-17 16:06:25.258
182.0, -179951.972359654, -181323.43069594275, -177808.0153832454, -177811.74812456945, -179837.01733792035, -180701.56046170718, -182950.63769228908, 187500.0, 0.034, -0.012, 1.008, 192.0, 0.0, 0.0, 0.0, 0.0, 0.0, 0.0, 0.0, 0.0, 0.0, 1.6896027852585368E9, 0.0, 2023-07-17 16:06:25.258
183.0, -179912.02979231236, -181283.21990766763, -177835.9327120701, -177815.3691071712, -179839.34191934371, -180722.88402591753, -182971.02248323234, 187500.0, 0.034, -0.012, 1.008, 192.0, 0.0, 0.0, 0.0, 0.0, 0.0, 0.0, 0.0, 0.0, 0.0, 1.689602785258584E9, 0.0, 2023-07-17 16:06:25.258
184.0, -179933.15219082264, -181291.15477694926, -177838.5702179158, -177777.95228695302, -179830.31181458378, -180734.0151946563, -183009.04280055081, 187500.0, 0.034, -0.012, 1.008, 192.0, 0.0, 0.0, 0.0, 0.0, 0.0, 0.0, 0.0, 0.0, 0.0, 1.6896027852586288E9, 0.0, 2023-07-17 16:06:25.258
185.0, -179933.59922571175, -181315.00408828308, -177796.66069706212, -177809.22237744599, -179857.15625967458, -180700.1970052954, -182963.48994535088, 187500.0, 0.034, -0.012, 1.008, 192.0, 0.0, 0.0, 0.0, 0.0, 0.0, 0.0, 0.0, 0.0, 0.0, 1.6896027852586765E9, 0.0, 2023-07-17 16:06:25.258
186.0, -179902.35148696322, -181277.20728840915, -177826.18735148758, -177801.91335700912, -179854.13877417313, -180722.72756370637, -182986.95927702897, 187500.0, 0.034, -0.012, 1.008, 192.0, 0.0, 0.0, 0.0, 0.0, 0.0, 0.0, 0.0, 0.0, 0.0, 1.689602785258721E9, 0.0, 2023-07-17 16:06:25.258
187.0, -179932.25812104443, -181294.6416490843, -177814.78796181537, -177776.70058926352, -179846.13684965813, -180732.5623312667, -183006.76292261636, 187500.0, 0.032, -0.01, 1.01, 192.0, 1.0, 0.0, 255.0, 176.0, 31.0, 144.0, 0.0, 0.0, 0.0, 1.6896027852587643E9, 0.0, 2023-07-17 16:06:25.258
188.0, -179940.72943219298, -181326.35877446638, -177806.85309253374, -177831.8646945792, -179884.3136291878, -180729.79071495423, -182983.2935909383, 187500.0, 0.032, -0.01, 1.01, 192.0, 0.0, 0.0, 0.0, 0.0, 0.0, 0.0, 0.0, 0.0, 0.0, 1.6896027852588103E9, 0.0, 2023-07-17 16:06:25.258
189.0, -179908.78878936634, -181274.793300008, -177840.0230813054, -177804.64026983266, -179863.52650684436, -180751.04722393124, -183021.87270186815, 187500.0, 0.032, -0.01, 1.01, 192.0, 0.0, 0.0, 0.0, 0.0, 0.0, 0.0, 0.0, 0.0, 0.0, 1.6896027852588625E9, 0.0, 2023-07-17 16:06:25.258
190.0, -179913.8626353577, -181287.77966353652, -177814.13976122616, -177774.97950494045, -179869.49442261393, -180750.89076172005, -183041.6092922222, 187500.0, 0.032, -0.01, 1.01, 192.0, 0.0, 0.0, 0.0, 0.0, 0.0, 0.0, 0.0, 0.0, 0.0, 1.6896027852589068E9, 0.0, 2023-07-17 16:06:25.258
191.0, -179877.27282968437, -181288.18199493672, -177778.89106022014, -177804.46145587703, -179899.53516716184, -180729.4554387874, -183004.9971348044, 187500.0, 0.032, -0.01, 1.01, 192.0, 0.0, 0.0, 0.0, 0.0, 0.0, 0.0, 0.0, 0.0, 0.0, 1.689602785258943E9, 0.0, 2023-07-17 16:06:25.258
192.0, -179848.32732061474, -181245.11018337135, -177820.8676363072, -177788.92699348056, -179888.53810888986, -180768.2580671618, -183056.98729240743, 187500.0, 0.032, -0.01, 1.01, 192.0, 0.0, 0.0, 0.0, 0.0, 0.0, 0.0, 0.0, 0.0, 0.0, 1.6896027852589853E9, 0.0, 2023-07-17 16:06:25.258
193.0, -179856.61981780766, -181261.69517775718, -177805.93667101106, -177758.5956762547, -179889.6556961126, -180761.6643025475, -183064.74334773343, 187500.0, 0.032, -0.01, 1.01, 192.0, 0.0, 0.0, 0.0, 0.0, 0.0, 0.0, 0.0, 0.0, 0.0, 1.689602785259133E9, 0.0, 2023-07-17 16:06:25.259
194.0, -179842.11353565616, -181271.17231740622, -177782.13206316615, -177787.34001962424, -179912.65564115712, -180739.13374413655, -183021.53742570133, 187500.0, 0.032, -0.01, 1.01, 192.0, 0.0, 0.0, 0.0, 0.0, 0.0, 0.0, 0.0, 0.0, 0.0, 1.689602785259178E9, 0.0, 2023-07-17 16:06:25.259
195.0, -179817.1913405885, -181228.32402328542, -177815.03383100437, -177749.23029532796, -179890.1027310017, -180765.35234038264, -183057.12140287418, 187500.0, 0.032, -0.01, 1.01, 192.0, 0.0, 0.0, 0.0, 0.0, 0.0, 0.0, 0.0, 0.0, 0.0, 1.689602785259222E9, 0.0, 2023-07-17 16:06:25.259
196.0, -179856.39630036312, -181270.56882030593, -177795.36429588372, -177750.92902790656, -179913.8626353577, -180774.09187246466, -183062.79874596582, 187500.0, 0.032, -0.01, 1.01, 192.0, 0.0, 0.0, 0.0, 0.0, 0.0, 0.0, 0.0, 0.0, 0.0, 1.6896027852592647E9, 0.0, 2023-07-17 16:06:25.259
197.0, -179820.7899714458, -181256.9789596771, -177776.87940321915, -177772.8560892172, -179919.00353658243, -180756.88102923406, -183021.89505361262, 187500.0, 0.032, -0.008, 1.01, 192.0, 1.0, 0.0, 255.0, 192.0, 31.0, 144.0, 0.0, 0.0, 0.0, 1.68960278525931E9, 0.0, 2023-07-17 16:06:25.259
198.0, -179797.67826767903, -181218.8245318919, -177805.37787739967, -177735.12634457665, -179882.03375125336, -180779.9256777675, -183057.18845810753, 187500.0, 0.032, -0.008, 1.01, 192.0, 0.0, 0.0, 0.0, 0.0, 0.0, 0.0, 0.0, 0.0, 0.0, 1.689602785259359E9, 0.0, 2023-07-17 16:06:25.259
199.0, -179815.96199464347, -181255.79431722098, -177769.59273452673, -177745.698719704, -179896.42827468258, -180758.60211355714, -183040.6034637217, 187500.0, 0.032, -0.008, 1.01, 192.0, 0.0, 0.0, 0.0, 0.0, 0.0, 0.0, 0.0, 0.0, 0.0, 1.689602785259411E9, 0.0, 2023-07-17 16:06:25.259
200.0, -179782.21086051594, -181235.76715418903, -177779.82983348725, -177770.73267349394, -179907.78296086585, -180754.93642746645, -183022.72206815745, 187500.0, 0.032, -0.008, 1.01, 192.0, 0.0, 0.0, 0.0, 0.0, 0.0, 0.0, 0.0, 0.0, 0.0, 1.6896027852594543E9, 0.0, 2023-07-17 16:06:25.259
201.0, -179805.16610207155, -181234.73897394407, -177818.05131650585, -177749.0514813723, -179899.60222239522, -180796.5330238978, -183074.2651908714, 187500.0, 0.032, -0.008, 1.01, 192.0, 0.0, 0.0, 0.0, 0.0, 0.0, 0.0, 0.0, 0.0, 0.0, 1.6896027852594843E9, 0.0, 2023-07-17 16:06:25.259
202.0, -179842.6052740342, -181281.2976576445, -177792.57032782678, -177779.82983348725, -179920.1211238052, -180763.43009035947, -183032.42272525106, 187500.0, 0.032, -0.008, 1.01, 192.0, 0.0, 0.0, 0.0, 0.0, 0.0, 0.0, 0.0, 0.0, 0.0, 1.6896027852595234E9, 0.0, 2023-07-17 16:06:25.259
203.0, -179805.27786079384, -181251.4804305411, -177812.39632515865, -177791.38568537065, -179922.40100173964, -180772.4601951194, -183033.205036307, 187500.0, 0.032, -0.008, 1.01, 192.0, 0.0, 0.0, 0.0, 0.0, 0.0, 0.0, 0.0, 0.0, 0.0, 1.6896027852595708E9, 0.0, 2023-07-17 16:06:25.259
204.0, -179809.25647130687, -181233.55433148795, -177842.2359040065, -177741.42953651305, -179902.99968755242, -180798.36586694312, -183083.78703400935, 187500.0, 0.032, -0.008, 1.01, 192.0, 0.0, 0.0, 0.0, 0.0, 0.0, 0.0, 0.0, 0.0, 0.0, 1.6896027852596154E9, 0.0, 2023-07-17 16:06:25.259
205.0, -179803.35561077067, -181257.4259945662, -177787.965868469, -177752.4936500184, -179925.39613549665, -180758.69152053495, -183041.0057951219, 187500.0, 0.032, -0.008, 1.01, 192.0, 0.0, 0.0, 0.0, 0.0, 0.0, 0.0, 0.0, 0.0, 0.0, 1.6896027852596607E9, 0.0, 2023-07-17 16:06:25.259
206.0, -179757.60158987067, -181222.5796249604, -177798.87351976318, -177764.69770249102, -179920.34464124974, -180759.98792171336, -183037.58597822025, 187500.0, 0.028, -0.008, 1.008, 192.0, 0.0, 224.0, 255.0, 192.0, 31.0, 128.0, 0.0, 0.0, 0.0, 1.68960278525971E9, 0.0, 2023-07-17 16:06:25.259
207.0, -179808.96589862896, -181242.8303054369, -177826.63438637668, -177751.66663547358, -179912.74504813494, -180795.10251225263, -183072.14177514813, 187500.0, 0.028, -0.008, 1.008, 192.0, 0.0, 0.0, 0.0, 0.0, 0.0, 0.0, 0.0, 0.0, 0.0, 1.6896027852598293E9, 0.0, 2023-07-17 16:06:25.259
208.0, -179835.67623325303, -181276.0897011864, -177797.55476684033, -177784.0096097004, -179914.44378071354, -180755.11524142209, -183010.09333254021, 187500.0, 0.028, -0.008, 1.008, 192.0, 0.0, 0.0, 0.0, 0.0, 0.0, 0.0, 0.0, 0.0, 0.0, 1.6896027852598724E9, 0.0, 2023-07-17 16:06:25.259
209.0, -179828.81424770528, -181247.41241305025, -177825.0250607759, -177785.12719692316, -179881.0055710084, -180755.27170363328, -182999.9456405575, 187500.0, 0.028, -0.008, 1.008, 192.0, 0.0, 0.0, 0.0, 0.0, 0.0, 0.0, 0.0, 0.0, 0.0, 1.6896027852599225E9, 0.0, 2023-07-17 16:06:25.259
210.0, -179915.7625336364, -181288.96430599265, -177825.94148229857, -177793.93378423856, -179850.31662587126, -180731.40004055502, -182979.60555310317, 187500.0, 0.028, -0.008, 1.008, 192.0, 0.0, 0.0, 0.0, 0.0, 0.0, 0.0, 0.0, 0.0, 0.0, 1.6896027852599726E9, 0.0, 2023-07-17 16:06:25.259
211.0, -179932.86161814473, -181302.01772475455, -177824.0192322754, -177827.03671777688, -179840.16893388855, -180698.0959413166, -182917.49005526188, 187500.0, 0.028, -0.008, 1.008, 192.0, 0.0, 0.0, 0.0, 0.0, 0.0, 0.0, 0.0, 0.0, 0.0, 1.6896027852600214E9, 0.0, 2023-07-17 16:06:25.260
212.0, -179982.86247049124, -181291.1994804382, -177840.96185457252, -177825.65090962066, -179788.78227338582, -180691.52452844675, -182911.83506391468, 187500.0, 0.028, -0.008, 1.008, 192.0, 0.0, 0.0, 0.0, 0.0, 0.0, 0.0, 0.0, 0.0, 0.0, 1.6896027852600665E9, 0.0, 2023-07-17 16:06:25.260
213.0, -180069.22961106655, -181339.43454497273, -177852.31654075583, -177864.6323519507, -179782.05439830475, -180662.62372286603, -182871.28899947274, 187500.0, 0.028, -0.008, 1.008, 192.0, 0.0, 0.0, 0.0, 0.0, 0.0, 0.0, 0.0, 0.0, 0.0, 1.6896027852601204E9, 0.0, 2023-07-17 16:06:25.260
214.0, -180066.14507033172, -181326.2023122552, -177877.12697710123, -177881.30675331436, -179761.1331654946, -180662.13198448802, -182851.08302248514, 187500.0, 0.028, -0.008, 1.008, 192.0, 0.0, 0.0, 0.0, 0.0, 0.0, 0.0, 0.0, 0.0, 0.0, 1.6896027852601717E9, 0.0, 2023-07-17 16:06:25.260
215.0, -180126.22655942757, -181339.7474693951, -177871.76255843195, -177864.69940718406, -179719.33540336316, -180652.81130705017, -182857.87795279958, 187500.0, 0.028, -0.008, 1.008, 192.0, 0.0, 0.0, 0.0, 0.0, 0.0, 0.0, 0.0, 0.0, 0.0, 1.6896027852602203E9, 0.0, 2023-07-17 16:06:25.260
216.0, -180119.47633260206, -181338.22755077214, -177832.4234881906, -177873.23777356598, -179712.58517653766, -180610.67826875192, -182793.12494911253, 187500.0, 0.03, -0.008, 1.006, 192.0, 0.0, 240.0, 255.0, 192.0, 31.0, 112.0, 0.0, 0.0, 0.0, 1.6896027852602737E9, 0.0, 2023-07-17 16:06:25.260
217.0, -180143.07977474688, -181321.93312906424, -177855.06580532383, -177870.37675027573, -179696.49192052984, -180626.99504220427, -182808.34648708662, 187500.0, 0.03, -0.008, 1.006, 192.0, 0.0, 0.0, 0.0, 0.0, 0.0, 0.0, 0.0, 0.0, 0.0, 1.6896027852603269E9, 0.0, 2023-07-17 16:06:25.260
218.0, -180232.4420490792, -181374.95146691223, -177864.87822113972, -177914.67790778613, -179683.14792909002, -180606.85612045004, -182789.41455953295, 187500.0, 0.03, -0.008, 1.006, 192.0, 0.0, 0.0, 0.0, 0.0, 0.0, 0.0, 0.0, 0.0, 0.0, 1.689602785260373E9, 0.0, 2023-07-17 16:06:25.260
219.0, -180249.42937486523, -181379.22065010318, -177890.64978249668, -177948.38433842474, -179669.40160625, -180604.82211170462, -182749.04730904667, 187500.0, 0.03, -0.008, 1.006, 192.0, 0.0, 0.0, 0.0, 0.0, 0.0, 0.0, 0.0, 0.0, 0.0, 1.689602785260423E9, 0.0, 2023-07-17 16:06:25.260
220.0, -180314.98704135264, -181387.1555193848, -177882.5808027483, -177939.95773076508, -179622.82057080514, -180607.0349344057, -182756.44573646138, 187500.0, 0.03, -0.008, 1.006, 192.0, 0.0, 0.0, 0.0, 0.0, 0.0, 0.0, 0.0, 0.0, 0.0, 1.6896027852604709E9, 0.0, 2023-07-17 16:06:25.260
221.0, -180342.63614924386, -181416.21278717672, -177887.0287998949, -177975.63111491574, -179648.83800135113, -180593.40037028794, -182724.4380384014, 187500.0, 0.03, -0.008, 1.006, 192.0, 0.0, 0.0, 0.0, 0.0, 0.0, 0.0, 0.0, 0.0, 0.0, 1.6896027852605047E9, 0.0, 2023-07-17 16:06:25.260
222.0, -180319.815018155, -181376.82901344646, -177898.24937561149, -177937.36492840826, -179642.02071929225, -180612.1311321415, -182747.99677705727, 187500.0, 0.03, -0.008, 1.006, 192.0, 0.0, 0.0, 0.0, 0.0, 0.0, 0.0, 0.0, 0.0, 0.0, 1.6896027852606256E9, 0.0, 2023-07-17 16:06:25.260
223.0, -180335.46123927372, -181384.83093796147, -177859.60320944825, -177899.25520411198, -179626.21803596237, -180600.75409421374, -182775.80234715968, 187500.0, 0.03, -0.008, 1.006, 192.0, 0.0, 0.0, 0.0, 0.0, 0.0, 0.0, 0.0, 0.0, 0.0, 1.6896027852606616E9, 0.0, 2023-07-17 16:06:25.260
224.0, -180307.6556691713, -181380.91938268178, -177843.979340074, -177917.13659967622, -179666.71939691537, -180594.8308819331, -182749.33788172458, 187500.0, 0.03, -0.008, 1.006, 192.0, 0.0, 0.0, 0.0, 0.0, 0.0, 0.0, 0.0, 0.0, 0.0, 1.689602785260696E9, 0.0, 2023-07-17 16:06:25.260
225.0, -180266.46140414017, -181324.7047453767, -177871.87431715423, -177874.55652648886, -179667.2111352934, -180633.52175158524, -182813.55444354468, 187500.0, 0.03, -0.008, 1.006, 192.0, 0.0, 0.0, 0.0, 0.0, 0.0, 0.0, 0.0, 0.0, 0.0, 1.6896027852607305E9, 0.0, 2023-07-17 16:06:25.260
226.0, -180243.32734862893, -181311.91954754826, -177841.36418597272, -177854.37290124572, -179686.2101180804, -180645.1893621909, -182863.33177844665, 187500.0, 0.032, -0.01, 1.004, 192.0, 1.0, 0.0, 255.0, 176.0, 31.0, 96.0, 0.0, 0.0, 0.0, 1.6896027852607608E9, 0.0, 2023-07-17 16:06:25.260
227.0, -180185.97277235662, -181290.01483798205, -177817.1125432387, -177872.58957297678, -179732.25471165834, -180635.66751905295, -182843.84105728162, 187500.0, 0.032, -0.01, 1.004, 192.0, 0.0, 0.0, 0.0, 0.0, 0.0, 0.0, 0.0, 0.0, 0.0, 1.689602785260801E9, 0.0, 2023-07-17 16:06:25.260
228.0, -180146.49959164855, -181246.20541884965, -177853.59059018976, -177830.34477595627, -179748.05739498825, -180688.149415034, -182920.2169680854, 187500.0, 0.032, -0.01, 1.004, 192.0, 0.0, 0.0, 0.0, 0.0, 0.0, 0.0, 0.0, 0.0, 0.0, 1.6896027852609065E9, 0.0, 2023-07-17 16:06:25.260
229.0, -180132.44034438615, -181246.07130838293, -177829.6295201337, -177807.47894137847, -179775.3935784571, -180710.5458629782, -182975.20225944548, 187500.0, 0.032, -0.01, 1.004, 192.0, 0.0, 0.0, 0.0, 0.0, 0.0, 0.0, 0.0, 0.0, 0.0, 1.6896027852609508E9, 0.0, 2023-07-17 16:06:25.260
230.0, -180087.58039326436, -181236.25889256704, -177790.11163593672, -177830.1212585117, -179807.46833175045, -180684.59548766562, -182943.59689278566, 187500.0, 0.032, -0.01, 1.004, 192.0, 0.0, 0.0, 0.0, 0.0, 0.0, 0.0, 0.0, 0.0, 0.0, 1.689602785260986E9, 0.0, 2023-07-17 16:06:25.260
231.0, -180023.3414796998, -181177.1161767383, -177815.50321763795, -177788.50231033593, -179806.35074452768, -180720.3135753052, -182989.01563751884, 187500.0, 0.032, -0.01, 1.004, 192.0, 0.0, 0.0, 0.0, 0.0, 0.0, 0.0, 0.0, 0.0, 0.0, 1.6896027852610233E9, 0.0, 2023-07-17 16:06:25.261
232.0, -180003.00139224547, -181173.3610836698, -177785.6189353012, -177749.02912962786, -179820.9017301681, -180732.09294463313, -183023.92906235805, 187500.0, 0.032, -0.01, 1.004, 192.0, 0.0, 0.0, 0.0, 0.0, 0.0, 0.0, 0.0, 0.0, 0.0, 1.6896027852610517E9, 0.0, 2023-07-17 16:06:25.261
233.0, -179974.99465644298, -181181.3630081848, -177754.37119655267, -177782.93672596655, -179853.17764916155, -180710.9034908895, -182979.1808699585, 187500.0, 0.032, -0.01, 1.004, 192.0, 0.0, 0.0, 0.0, 0.0, 0.0, 0.0, 0.0, 0.0, 0.0, 1.6896027852610917E9, 0.0, 2023-07-17 16:06:25.261
234.0, -179954.65456898866, -181157.513696851, -177802.47215062048, -177775.18067064055, -179857.08920444123, -180754.06470943269, -183031.93098687305, 187500.0, 0.032, -0.01, 1.004, 192.0, 0.0, 0.0, 0.0, 0.0, 0.0, 0.0, 0.0, 0.0, 0.0, 1.689602785261119E9, 0.0, 2023-07-17 16:06:25.261
235.0, -179975.15111865415, -181190.03548503347, -177795.45370286153, -177749.81144068378, -179867.84039352424, -180760.77023276928, -183051.86874292718, 187500.0, 0.032, -0.01, 1.004, 192.0, 0.0, 0.0, 0.0, 0.0, 0.0, 0.0, 0.0, 0.0, 0.0, 1.68960278526116E9, 0.0, 2023-07-17 16:06:25.261
236.0, -179938.56131298083, -181186.39215068726, -177757.4110337986, -177766.84346995872, -179880.71499833048, -180723.48752301783, -182999.92328881304, 187500.0, 0.026000000000000002, -0.004, 1.004, 192.0, 0.0, 208.0, 255.0, 224.0, 31.0, 96.0, 0.0, 0.0, 0.0, 1.6896027852611854E9, 0.0, 2023-07-17 16:06:25.261
237.0, -179923.9209203626, -181160.262961419, -177804.03677273236, -177744.87170515917, -179867.81804177977, -180758.57976181267, -183043.710356201, 187500.0, 0.026000000000000002, -0.004, 1.004, 192.0, 0.0, 0.0, 0.0, 0.0, 0.0, 0.0, 0.0, 0.0, 0.0, 1.689602785261386E9, 0.0, 2023-07-17 16:06:25.261
238.0, -179951.3241590648, -181196.4727874366, -177779.7627782539, -177735.19339981003, -179875.12706221666, -180753.26004663232, -183038.12242008717, 187500.0, 0.026000000000000002, -0.004, 1.004, 192.0, 0.0, 0.0, 0.0, 0.0, 0.0, 0.0, 0.0, 0.0, 0.0, 1.6896027852614279E9, 0.0, 2023-07-17 16:06:25.261
239.0, -179929.66531868762, -181197.83624384837, -177776.0747404188, -177772.74433049493, -179890.92974554657, -180741.68184300445, -183001.689076625, 187500.0, 0.026000000000000002, -0.004, 1.004, 192.0, 0.0, 0.0, 0.0, 0.0, 0.0, 0.0, 0.0, 0.0, 0.0, 1.6896027852614574E9, 0.0, 2023-07-17 16:06:25.261
240.0, -179933.04043210036, -181185.07339776438, -177823.6169008752, -177740.78133592385, -179872.5566116043, -180773.39896838655, -183043.06215561178, 187500.0, 0.026000000000000002, -0.004, 1.004, 192.0, 0.0, 0.0, 0.0, 0.0, 0.0, 0.0, 0.0, 0.0, 0.0, 1.689602785261495E9, 0.0, 2023-07-17 16:06:25.261
241.0, -179953.20170559906, -181221.10440982634, -177772.07377816128, -177745.34109179274, -179876.89285002864, -180745.12401165057, -183012.41791396355, 187500.0, 0.026000000000000002, -0.004, 1.004, 192.0, 0.0, 0.0, 0.0, 0.0, 0.0, 0.0, 0.0, 0.0, 0.0, 1.6896027857353845E9, 0.0, 2023-07-17 16:06:25.735
242.0, -179908.1629405216, -181199.2667554935, -177768.721016493, -177766.0611589028, -179890.77328333538, -180746.15219189553, -183000.1915097465, 187500.0, 0.026000000000000002, -0.004, 1.004, 192.0, 0.0, 0.0, 0.0, 0.0, 0.0, 0.0, 0.0, 0.0, 0.0, 1.6896027857355623E9, 0.0, 2023-07-17 16:06:25.735
243.0, -179885.52062338838, -181159.92768525216, -177809.49059837946, -177712.41697221005, -179874.56826860528, -180780.59623010116, -183060.54121977583, 187500.0, 0.026000000000000002, -0.004, 1.004, 192.0, 0.0, 0.0, 0.0, 0.0, 0.0, 0.0, 0.0, 0.0, 0.0, 1.6896027857356124E9, 0.0, 2023-07-17 16:06:25.735
244.0, -179871.57313484827, -181175.8644790488, -177763.58011526827, -177710.1594460201, -179903.960812564, -180761.37372986958, -183059.02130115288, 187500.0, 0.026000000000000002, -0.004, 1.004, 192.0, 0.0, 0.0, 0.0, 0.0, 0.0, 0.0, 0.0, 0.0, 0.0, 1.6896027857356627E9, 0.0, 2023-07-17 16:06:25.735
245.0, -179828.41191630508, -181160.53118235245, -177762.57428676778, -177741.60835046868, -179929.57591170978, -180761.08315719166, -183049.43240278156, 187500.0, 0.026000000000000002, -0.004, 1.004, 192.0, 0.0, 0.0, 0.0, 0.0, 0.0, 0.0, 0.0, 0.0, 0.0, 1.6896027857357106E9, 0.0, 2023-07-17 16:06:25.735
246.0, -179825.6850034815, -181144.43792634463, -177827.95313929953, -177729.91838811856, -179928.74889716494, -180820.71761139843, -183116.04060125837, 187500.0, 0.028, -0.01, 1.0, 192.0, 0.0, 224.0, 255.0, 176.0, 31.0, 64.0, 0.0, 0.0, 0.0, 1.6896027857357583E9, 0.0, 2023-07-17 16:06:25.735
247.0, -179833.26224485188, -181174.94805752614, -177799.61112733022, -177718.72016414645, -179945.0656706173, -180814.9285095845, -183106.98814475397, 187500.0, 0.028, -0.01, 1.0, 192.0, 0.0, 0.0, 0.0, 0.0, 0.0, 0.0, 0.0, 0.0, 0.0, 1.6896027857358148E9, 0.0, 2023-07-17 16:06:25.735
248.0, -179784.60249717266, -181156.15024043922, -177769.27981010437, -177738.59086496723, -179955.1686591111, -180785.33479992568, -183061.10001338721, 187500.0, 0.028, -0.01, 1.0, 192.0, 0.0, 0.0, 0.0, 0.0, 0.0, 0.0, 0.0, 0.0, 0.0, 1.6896027857358878E9, 0.0, 2023-07-17 16:06:25.735
249.0, -179773.67249413402, -181126.8471034583, -177819.90651129562, -177714.80860886676, -179947.88199041868, -180831.96053885945, -183129.7869240984, 187500.0, 0.028, -0.01, 1.0, 192.0, 0.0, 0.0, 0.0, 0.0, 0.0, 0.0, 0.0, 0.0, 0.0, 1.6896027857359388E9, 0.0, 2023-07-17 16:06:25.735
250.0, -179800.47223573594, -181171.63999934675, -177803.27681342087, -177739.48493474544, -179984.20357515855, -180828.2277975354, -183130.8374560878, 187500.0, 0.028, -0.01, 1.0, 192.0, 0.0, 0.0, 0.0, 0.0, 0.0, 0.0, 0.0, 0.0, 0.0, 1.6896027857359867E9, 0.0, 2023-07-17 16:06:25.735
251.0, -179748.9738165109, -181149.6682345472, -177790.64807780363, -177755.7570047089, -179984.11416818073, -180805.0713902797, -183093.21947016948, 187500.0, 0.028, -0.01, 1.0, 192.0, 0.0, 0.0, 0.0, 0.0, 0.0, 0.0, 0.0, 0.0, 0.0, 1.689602785736036E9, 0.0, 2023-07-17 16:06:25.736
252.0, -179725.86211274413, -181111.82673118435, -177813.7597815704, -177710.0029838089, -179947.1667345961, -180831.08882082568, -183135.35250846774, 187500.0, 0.028, -0.01, 1.0, 192.0, 0.0, 0.0, 0.0, 0.0, 0.0, 0.0, 0.0, 0.0, 0.0, 1.6896027857362392E9, 0.0, 2023-07-17 16:06:25.736
253.0, -179728.90194999005, -181136.77127799648, -177777.54995555282, -177714.87566410014, -179968.3338365953, -180804.84787283515, -183109.89387153316, 187500.0, 0.028, -0.01, 1.0, 192.0, 0.0, 0.0, 0.0, 0.0, 0.0, 0.0, 0.0, 0.0, 0.0, 1.6896027857362897E9, 0.0, 2023-07-17 16:06:25.736
254.0, -179703.3762578221, -181132.3456325943, -177794.24670866094, -177755.71230122, -179986.21523215953, -180801.8750908226, -183092.23599341346, 187500.0, 0.028, -0.01, 1.0, 192.0, 0.0, 0.0, 0.0, 0.0, 0.0, 0.0, 0.0, 0.0, 0.0, 1.6896027857363353E9, 0.0, 2023-07-17 16:06:25.736
255.0, -179713.30043236024, -181119.6051382548, -177831.55177015683, -177722.81053338177, -179955.6827492336, -180830.46297198095, -183137.0288893019, 187500.0, 0.028, -0.01, 1.0, 192.0, 0.0, 0.0, 0.0, 0.0, 0.0, 0.0, 0.0, 0.0, 0.0, 1.6896027857363808E9, 0.0, 2023-07-17 16:06:25.736
0.0, -179738.0661652167, -181170.6118191018, -177799.11938895218, -177739.57434172326, -179978.50388032245, -180803.1267885121, -183113.5148541349, 187500.0, 0.028, 0.002, 1.002, 192.0, 0.0, 224.0, 0.0, 16.0, 31.0, 80.0, 0.0, 0.0, 0.0, 1.6896027857364275E9, 0.0, 2023-07-17 16:06:25.736
1.0, -179692.915641417, -181147.32130137936, -177807.38953440066, -177761.38964431162, -179983.37656061372, -180807.55243391424, -183102.3613336517, 187500.0, 0.028, 0.002, 1.002, 192.0, 0.0, 0.0, 0.0, 0.0, 0.0, 0.0, 0.0, 0.0, 0.0, 1.6896027857364752E9, 0.0, 2023-07-17 16:06:25.736
2.0, -179687.59592623662, -181114.1960160966, -177839.30782548283, -177720.7988763808, -179957.94027542358, -180842.8234866647, -183156.98899710047, 187500.0, 0.028, 0.002, 1.002, 192.0, 0.0, 0.0, 0.0, 0.0, 0.0, 0.0, 0.0, 0.0, 0.0, 1.6896027857365208E9, 0.0, 2023-07-17 16:06:25.736
3.0, -179688.44529252592, -181136.011318685, -177809.04356349036, -177736.62391145516, -179980.71670302353, -180820.96348058744, -183133.16203751112, 187500.0, 0.028, 0.002, 1.002, 192.0, 0.0, 0.0, 0.0, 0.0, 0.0, 0.0, 0.0, 0.0, 0.0, 1.689602785736565E9, 0.0, 2023-07-17 16:06:25.736
4.0, -179650.98376881884, -181117.05703938688, -177814.54209262636, -177762.88721119013, -179990.26089790594, -180814.25795725084, -183112.28550818987, 187500.0, 0.028, 0.002, 1.002, 192.0, 0.0, 0.0, 0.0, 0.0, 0.0, 0.0, 0.0, 0.0, 0.0, 1.6896027857366128E9, 0.0, 2023-07-17 16:06:25.736
5.0, -179681.3150860447, -181126.33301333582, -177857.25627628044, -177746.57043773777, -179970.01021742943, -180854.75931820387, -183159.78296515738, 187500.0, 0.028, 0.002, 1.002, 192.0, 0.0, 0.0, 0.0, 0.0, 0.0, 0.0, 0.0, 0.0, 0.0, 1.6896027857366524E9, 0.0, 2023-07-17 16:06:25.736
6.0, -179704.73971423385, -181163.6604265762, -177810.1611507131, -177759.08741463273, -179953.60403699926, -180805.4737216799, -183097.68981906056, 187500.0, 0.028, 0.002, 1.002, 192.0, 0.0, 0.0, 0.0, 0.0, 0.0, 0.0, 0.0, 0.0, 0.0, 1.6896027857366917E9, 0.0, 2023-07-17 16:06:25.736
7.0, -179699.4647025424, -181156.64197881724, -177832.84817133527, -177786.33419112375, -179952.19587709857, -180809.54173917076, -183079.3166851183, 187500.0, 0.028, 0.002, 1.002, 192.0, 0.0, 0.0, 0.0, 0.0, 0.0, 0.0, 0.0, 0.0, 0.0, 1.6896027857367296E9, 0.0, 2023-07-17 16:06:25.736
8.0, -179763.10011900667, -181179.15018548374, -177845.70042439704, -177765.48001354697, -179920.83637962776, -180805.16079725753, -183084.25642064292, 187500.0, 0.028, 0.002, 1.002, 192.0, 0.0, 0.0, 0.0, 0.0, 0.0, 0.0, 0.0, 0.0, 0.0, 1.6896027857367697E9, 0.0, 2023-07-17 16:06:25.736
9.0, -179795.55485195576, -181213.50481671153, -177819.59358687326, -177795.69957205054, -179915.42725746956, -180756.00931120032, -183022.20797803497, 187500.0, 0.028, 0.002, 1.002, 192.0, 0.0, 0.0, 0.0, 0.0, 0.0, 0.0, 0.0, 0.0, 0.0, 1.6896027857368088E9, 0.0, 2023-07-17 16:06:25.736
10.0, -179772.42079644452, -181179.0607785059, -177835.0833457808, -177778.2205078865, -179886.52645188887, -180764.63708456006, -183018.74345764442, 187500.0, 0.024, 0.002, 1.006, 192.0, 0.0, 192.0, 0.0, 16.0, 31.0, 112.0, 0.0, 0.0, 0.0, 1.689602785736862E9, 0.0, 2023-07-17 16:06:25.736
11.0, -179829.0377651498, -181223.8760261388, -177836.89383708168, -177773.12431015068, -179888.26988795638, -180765.24058166036, -183032.31096652878, 187500.0, 0.024, 0.002, 1.006, 192.0, 0.0, 0.0, 0.0, 0.0, 0.0, 0.0, 0.0, 0.0, 0.0, 1.689602785737012E9, 0.0, 2023-07-17 16:06:25.737
12.0, -179818.86772142266, -181235.32011929993, -177829.85303757823, -177814.13976122616, -179910.80044636733, -180747.09096516264, -183006.0029633049, 187500.0, 0.024, 0.002, 1.006, 192.0, 0.0, 0.0, 0.0, 0.0, 0.0, 0.0, 0.0, 0.0, 0.0, 1.6896027857370515E9, 0.0, 2023-07-17 16:06:25.737
13.0, -179780.4897761929, -181183.64288611925, -177849.56727618782, -177772.58786828374, -179886.57115537778, -180774.33774165367, -183049.43240278156, 187500.0, 0.024, 0.002, 1.006, 192.0, 0.0, 0.0, 0.0, 0.0, 0.0, 0.0, 0.0, 0.0, 0.0, 1.6896027857370913E9, 0.0, 2023-07-17 16:06:25.737
14.0, -179786.79296812927, -181198.015057804, -177835.50802892543, -177759.53444952186, -179901.99385905193, -180775.1200527096, -183070.35363559172, 187500.0, 0.024, 0.002, 1.006, 192.0, 0.0, 0.0, 0.0, 0.0, 0.0, 0.0, 0.0, 0.0, 0.0, 1.6896027857371309E9, 0.0, 2023-07-17 16:06:25.737
15.0, -179743.34117690817, -181180.58069712887, -177813.6703745926, -177780.88036547665, -179915.58371968076, -180745.68280526195, -183030.92515837256, 187500.0, 0.024, 0.002, 1.006, 192.0, 0.0, 0.0, 0.0, 0.0, 0.0, 0.0, 0.0, 0.0, 0.0, 1.6896027857371697E9, 0.0, 2023-07-17 16:06:25.737
16.0, -179728.38785986757, -181156.64197881724, -177861.90543912715, -177777.88523171964, -179919.96466159401, -180805.9878118024, -183097.75687429393, 187500.0, 0.024, 0.002, 1.006, 192.0, 0.0, 0.0, 0.0, 0.0, 0.0, 0.0, 0.0, 0.0, 0.0, 1.6896027857372077E9, 0.0, 2023-07-17 16:06:25.737
17.0, -179722.66581328702, -181161.71582480858, -177850.99778783295, -177761.76962396738, -179941.6235019712, -180824.51740795583, -183130.90451132113, 187500.0, 0.024, 0.002, 1.006, 192.0, 0.0, 0.0, 0.0, 0.0, 0.0, 0.0, 0.0, 0.0, 0.0, 1.6896027857372432E9, 0.0, 2023-07-17 16:06:25.737
18.0, -179699.93408917595, -181167.48257487806, -177821.3593746852, -177800.88517676416, -179969.2726098624, -180801.85273907814, -183091.47603410197, 187500.0, 0.024, 0.002, 1.006, 192.0, 0.0, 0.0, 0.0, 0.0, 0.0, 0.0, 0.0, 0.0, 0.0, 1.689602785737283E9, 0.0, 2023-07-17 16:06:25.737
19.0, -179658.33749274464, -181120.007469655, -177852.85298262275, -177785.93185972355, -179957.24737134547, -180833.34634701567, -183134.8831218342, 187500.0, 0.024, 0.002, 1.006, 192.0, 0.0, 0.0, 0.0, 0.0, 0.0, 0.0, 0.0, 0.0, 0.0, 1.6896027857373247E9, 0.0, 2023-07-17 16:06:25.737
20.0, -179646.58047516114, -181111.8937864177, -177839.1290115272, -177756.58401925376, -179958.05203414586, -180847.7408704449, -183170.75767168496, 187500.0, 0.028, 0.0, 1.008, 192.0, 0.0, 224.0, 0.0, 0.0, 31.0, 128.0, 0.0, 0.0, 0.0, 1.6896027857373664E9, 0.0, 2023-07-17 16:06:25.737
21.0, -179616.2491579353, -181117.01233589798, -177794.17965342756, -177782.78026375535, -179974.10058666475, -180804.28907922376, -183113.80542681282, 187500.0, 0.028, 0.0, 1.008, 192.0, 0.0, 0.0, 0.0, 0.0, 0.0, 0.0, 0.0, 0.0, 0.0, 1.6896027857374086E9, 0.0, 2023-07-17 16:06:25.737
22.0, -179577.42417781643, -181079.61786742424, -177832.3340812128, -177783.00378119992, -179983.30950538034, -180847.89733265608, -183159.38063375722, 187500.0, 0.028, 0.0, 1.008, 192.0, 0.0, 0.0, 0.0, 0.0, 0.0, 0.0, 0.0, 0.0, 0.0, 1.68960278573745E9, 0.0, 2023-07-17 16:06:25.737
23.0, -179568.1929073564, -181061.06591952633, -177858.46327048104, -177741.54129523534, -179988.7856827719, -180883.07897842873, -183227.55345434588, 187500.0, 0.028, 0.0, 1.008, 192.0, 0.0, 0.0, 0.0, 0.0, 0.0, 0.0, 0.0, 0.0, 0.0, 1.6896027857374897E9, 0.0, 2023-07-17 16:06:25.737
24.0, -179552.81490717112, -181079.28259125742, -177811.39049665816, -177771.78320548334, -180029.5999681473, -180842.6223209646, -183185.3310090698, 187500.0, 0.028, 0.0, 1.008, 192.0, 0.0, 0.0, 0.0, 0.0, 0.0, 0.0, 0.0, 0.0, 0.0, 1.6896027857375329E9, 0.0, 2023-07-17 16:06:25.737
25.0, -179508.13377000496, -181047.20783796406, -177832.49054342398, -177782.6685050331, -180029.0411745359, -180857.5979897497, -183194.20465161858, 187500.0, 0.028, 0.0, 1.008, 192.0, 0.0, 0.0, 0.0, 0.0, 0.0, 0.0, 0.0, 0.0, 0.0, 1.689602785737763E9, 0.0, 2023-07-17 16:06:25.737
26.0, -179502.61288912452, -181034.981433747, -177866.62165720723, -177739.77550742336, -180019.0275930199, -180910.6386793421, -183253.61558838078, 187500.0, 0.028, 0.0, 1.008, 192.0, 0.0, 0.0, 0.0, 0.0, 0.0, 0.0, 0.0, 0.0, 0.0, 1.6896027857378223E9, 0.0, 2023-07-17 16:06:25.737
27.0, -179497.04730475513, -181063.92694281662, -177820.33119444028, -177765.2117926135, -180054.0527765814, -180884.33067611823, -183220.80322752037, 187500.0, 0.028, 0.0, 1.008, 192.0, 0.0, 0.0, 0.0, 0.0, 0.0, 0.0, 0.0, 0.0, 0.0, 1.6896027857378953E9, 0.0, 2023-07-17 16:06:25.737
28.0, -179458.51289731418, -181040.01057624945, -177829.5177614114, -177779.7627782539, -180058.52312547245, -180885.26944938535, -183212.242509394, 187500.0, 0.028, 0.0, 1.008, 192.0, 0.0, 0.0, 0.0, 0.0, 0.0, 0.0, 0.0, 0.0, 0.0, 1.6896027857379444E9, 0.0, 2023-07-17 16:06:25.737
29.0, -179451.71796699977, -181018.7764190169, -177866.66636069614, -177736.28863528834, -180038.2500932515, -180929.3470894512, -183267.0042833095, 187500.0, 0.028, 0.0, 1.008, 192.0, 0.0, 0.0, 0.0, 0.0, 0.0, 0.0, 0.0, 0.0, 0.0, 1.6896027857379928E9, 0.0, 2023-07-17 16:06:25.737
30.0, -179451.69561525533, -181044.21270420705, -177825.8297235763, -177748.8950191611, -180060.11009932877, -180903.26260367187, -183238.63991959573, 187500.0, 0.03, -0.002, 1.006, 192.0, 0.0, 240.0, 255.0, 240.0, 31.0, 112.0, 0.0, 0.0, 0.0, 1.6896027857380464E9, 0.0, 2023-07-17 16:06:25.738
31.0, -179418.27975729463, -181034.91437851364, -177827.03671777688, -177773.95132469552, -180074.05758786888, -180901.63092632664, -183218.12101818575, 187500.0, 0.03, -0.002, 1.006, 192.0, 0.0, 0.0, 0.0, 0.0, 0.0, 0.0, 0.0, 0.0, 0.0, 1.6896027857380958E9, 0.0, 2023-07-17 16:06:25.738
32.0, -179403.16997804286, -180995.3294390833, -177861.19018330457, -177741.6530539576, -180047.57077068934, -180942.42285995756, -183278.44837647062, 187500.0, 0.03, -0.002, 1.006, 192.0, 0.0, 0.0, 0.0, 0.0, 0.0, 0.0, 0.0, 0.0, 0.0, 1.689602785738146E9, 0.0, 2023-07-17 16:06:25.738
33.0, -179380.25943997616, -181010.8862532242, -177847.22034302002, -177738.07677484475, -180088.98855316505, -180942.0205285574, -183301.9624116376, 187500.0, 0.03, -0.002, 1.006, 192.0, 0.0, 0.0, 0.0, 0.0, 0.0, 0.0, 0.0, 0.0, 0.0, 1.6896027857381933E9, 0.0, 2023-07-17 16:06:25.738
34.0, -179338.34991912247, -181012.85320673624, -177817.53722638337, -177766.8658217032, -180109.3733441083, -180906.3471444067, -183252.38624243572, 187500.0, 0.03, -0.002, 1.006, 192.0, 0.0, 0.0, 0.0, 0.0, 0.0, 0.0, 0.0, 0.0, 0.0, 1.689602785738243E9, 0.0, 2023-07-17 16:06:25.738
35.0, -179328.09046841747, -180981.53841275437, -177861.65956993814, -177763.3565978237, -180094.73295149006, -180957.75615665392, -183305.58339423937, 187500.0, 0.03, -0.002, 1.006, 192.0, 0.0, 0.0, 0.0, 0.0, 0.0, 0.0, 0.0, 0.0, 0.0, 1.689602785738292E9, 0.0, 2023-07-17 16:06:25.738
36.0, -179298.072075614, -180976.77749118538, -177885.7323987165, -177736.8027254108, -180102.37724809378, -180981.8736889212, -183368.03416824748, 187500.0, 0.03, -0.002, 1.006, 192.0, 0.0, 0.0, 0.0, 0.0, 0.0, 0.0, 0.0, 0.0, 0.0, 1.689602785738345E9, 0.0, 2023-07-17 16:06:25.738
37.0, -179218.4551618642, -180996.93876468408, -177840.06778479432, -177777.4158450861, -180130.87572227427, -180933.14688600862, -183307.48329251807, 187500.0, 0.03, -0.002, 1.006, 192.0, 0.0, 0.0, 0.0, 0.0, 0.0, 0.0, 0.0, 0.0, 0.0, 1.6896027857384038E9, 0.0, 2023-07-17 16:06:25.738
38.0, -179183.63114400284, -180970.92133413808, -177863.38065426121, -177784.68016203406, -180129.2663966735, -180963.36644451218, -183320.04497290196, 187500.0, 0.03, -0.002, 1.006, 192.0, 0.0, 0.0, 0.0, 0.0, 0.0, 0.0, 0.0, 0.0, 0.0, 1.6896027857384613E9, 0.0, 2023-07-17 16:06:25.738
39.0, -179195.8351964754, -180960.75129041093, -177895.32129708782, -177744.22350456996, -180116.19062616714, -180991.3284768258, -183372.54922062746, 187500.0, 0.03, -0.002, 1.006, 192.0, 0.0, 0.0, 0.0, 0.0, 0.0, 0.0, 0.0, 0.0, 0.0, 1.6896027857385123E9, 0.0, 2023-07-17 16:06:25.738
40.0, -179194.02470517455, -180989.1156541247, -177841.61005516173, -177773.95132469552, -180145.80668757044, -180946.80380187082, -183326.34816483836, 187500.0, 0.034, -0.004, 1.006, 192.0, 1.0, 16.0, 255.0, 224.0, 31.0, 112.0, 0.0, 0.0, 0.0, 1.6896027857388048E9, 0.0, 2023-07-17 16:06:25.738
41.0, -179160.00535011356, -180970.42959576007, -177853.41177623413, -177792.68208654906, -180151.93106555118, -180963.43349974556, -183319.03914440147, 187500.0, 0.034, -0.004, 1.006, 192.0, 0.0, 0.0, 0.0, 0.0, 0.0, 0.0, 0.0, 0.0, 0.0, 1.689602785738924E9, 0.0, 2023-07-17 16:06:25.738
42.0, -179168.16373683975, -180936.8572755882, -177898.22702386702, -177750.1020133617, -180117.30821338992, -181007.8240642338, -183382.16047074326, 187500.0, 0.034, -0.004, 1.006, 192.0, 0.0, 0.0, 0.0, 0.0, 0.0, 0.0, 0.0, 0.0, 0.0, 1.6896027857389789E9, 0.0, 2023-07-17 16:06:25.738
43.0, -179092.3689713918, -180956.12447930867, -177877.95399164606, -177757.4557372875, -180178.283772264, -181007.24291887795, -183417.4985787271, 187500.0, 0.034, -0.004, 1.006, 192.0, 0.0, 0.0, 0.0, 0.0, 0.0, 0.0, 0.0, 0.0, 0.0, 1.6896027857390265E9, 0.0, 2023-07-17 16:06:25.739
44.0, -179032.44394450713, -180956.99619734244, -177852.69652041155, -177781.10388292122, -180198.24388006257, -180979.99614238695, -183374.40441541726, 187500.0, 0.034, -0.004, 1.006, 192.0, 0.0, 0.0, 0.0, 0.0, 0.0, 0.0, 0.0, 0.0, 0.0, 1.6896027857390757E9, 0.0, 2023-07-17 16:06:25.739
45.0, -179014.1155140538, -180918.03710675682, -177888.7275324735, -177767.4022635701, -180175.9368390962, -181019.55873007284, -183394.1857092602, 187500.0, 0.034, -0.004, 1.006, 192.0, 0.0, 0.0, 0.0, 0.0, 0.0, 0.0, 0.0, 0.0, 0.0, 1.6896027857391248E9, 0.0, 2023-07-17 16:06:25.739
46.0, -178995.83178708932, -180910.7057345755, -177906.81009373788, -177732.69000443103, -180187.89502237976, -181057.60139913578, -183461.3079978595, 187500.0, 0.034, -0.004, 1.006, 192.0, 0.0, 0.0, 0.0, 0.0, 0.0, 0.0, 0.0, 0.0, 0.0, 1.6896027857391772E9, 0.0, 2023-07-17 16:06:25.739
47.0, -178947.8872952327, -180961.17597355557, -177870.80143342036, -177790.49161559244, -180246.65775855278, -181035.13789595818, -183431.13314284483, 187500.0, 0.034, -0.004, 1.006, 192.0, 0.0, 0.0, 0.0, 0.0, 0.0, 0.0, 0.0, 0.0, 0.0, 1.68960278573923E9, 0.0, 2023-07-17 16:06:25.739
48.0, -178913.24209132697, -180929.92823480704, -177887.96757316205, -177792.63738306015, -180247.66358705325, -181054.00276827847, -183422.52772122953, 187500.0, 0.034, -0.004, 1.006, 192.0, 0.0, 0.0, 0.0, 0.0, 0.0, 0.0, 0.0, 0.0, 0.0, 1.6896027857392757E9, 0.0, 2023-07-17 16:06:25.739
49.0, -178940.6900335181, -180929.79412434032, -177940.18124820964, -177759.4003390551, -180239.2369793936, -181105.50118750348, -183497.07078898797, 187500.0, 0.034, -0.004, 1.006, 192.0, 0.0, 0.0, 0.0, 0.0, 0.0, 0.0, 0.0, 0.0, 0.0, 1.6896027857393641E9, 0.0, 2023-07-17 16:06:25.739
50.0, -178921.6686989866, -180962.40531950063, -177880.32327655834, -177773.4595863175, -180256.0007877351, -181056.6402741242, -183457.53055304656, 187500.0, 0.03, -0.004, 1.004, 192.0, 0.0, 240.0, 255.0, 224.0, 31.0, 96.0, 0.0, 0.0, 0.0, 1.6896027857394211E9, 0.0, 2023-07-17 16:06:25.739
51.0, -178886.3305910028, -180944.72508963646, -177873.70716019956, -177786.44594984603, -180237.40413634828, -181042.31280592835, -183408.4461222227, 187500.0, 0.03, -0.004, 1.004, 192.0, 0.0, 0.0, 0.0, 0.0, 0.0, 0.0, 0.0, 0.0, 0.0, 1.6896027857394743E9, 0.0, 2023-07-17 16:06:25.739
52.0, -178899.49576848696, -180928.27420571737, -177915.504922331, -177753.16420235208, -180203.92122315423, -181090.65962918516, -183449.305111087, 187500.0, 0.03, -0.004, 1.004, 192.0, 0.0, 0.0, 0.0, 0.0, 0.0, 0.0, 0.0, 0.0, 0.0, 1.6896027857395155E9, 0.0, 2023-07-17 16:06:25.739
53.0, -178929.04477465688, -180960.97480785547, -177877.35049454577, -177757.14281286512, -180214.00185990357, -181068.50905042997, -183436.45285802518, 187500.0, 0.03, -0.004, 1.004, 192.0, 0.0, 0.0, 0.0, 0.0, 0.0, 0.0, 0.0, 0.0, 0.0, 1.68960278573956E9, 0.0, 2023-07-17 16:06:25.739
54.0, -178915.85724542825, -180953.10699380722, -177851.981264589, -177780.94742071003, -180199.24970856306, -181026.55482608735, -183367.65418859175, 187500.0, 0.03, -0.004, 1.004, 192.0, 0.0, 0.0, 0.0, 0.0, 0.0, 0.0, 0.0, 0.0, 0.0, 1.689602785739602E9, 0.0, 2023-07-17 16:06:25.739
55.0, -178954.07872844682, -180963.43349974556, -177904.10553265878, -177785.79774925683, -180179.44606297568, -181074.745187133, -183405.2945262545, 187500.0, 0.03, -0.004, 1.004, 192.0, 0.0, 0.0, 0.0, 0.0, 0.0, 0.0, 0.0, 0.0, 0.0, 1.689602785739776E9, 0.0, 2023-07-17 16:06:25.739
56.0, -179011.23213901903, -181019.33521262827, -177883.0278376374, -177785.35071436773, -180164.00100755706, -181037.66364308164, -183381.95930504316, 187500.0, 0.03, -0.004, 1.004, 192.0, 0.0, 0.0, 0.0, 0.0, 0.0, 0.0, 0.0, 0.0, 0.0, 1.6896027857398221E9, 0.0, 2023-07-17 16:06:25.739
57.0, -179008.52757793994, -181025.39253537566, -177867.58278221881, -177809.64706059065, -180153.9203708077, -180998.6151455182, -183319.0614961459, 187500.0, 0.03, -0.004, 1.004, 192.0, 0.0, 0.0, 0.0, 0.0, 0.0, 0.0, 0.0, 0.0, 0.0, 1.6896027857398744E9, 0.0, 2023-07-17 16:06:25.739
58.0, -179049.09599412634, -181027.53830284337, -177916.8460269983, -177793.06206620482, -180121.89032100324, -181037.01544249244, -183355.24897041905, 187500.0, 0.03, -0.004, 1.004, 192.0, 0.0, 0.0, 0.0, 0.0, 0.0, 0.0, 0.0, 0.0, 0.0, 1.6896027857399158E9, 0.0, 2023-07-17 16:06:25.739
59.0, -179110.71975358963, -181079.2378877685, -177880.50209051397, -177793.53145283836, -180111.273242387, -180997.54226178437, -183310.52312976398, 187500.0, 0.03, -0.004, 1.004, 192.0, 0.0, 0.0, 0.0, 0.0, 0.0, 0.0, 0.0, 0.0, 0.0, 1.6896027857399623E9, 0.0, 2023-07-17 16:06:25.739
60.0, -179112.35143093485, -181084.1999750376, -177875.987038134, -177827.8190288328, -180107.33933536283, -180981.1584330986, -183269.03829205493, 187500.0, 0.032, -0.008, 1.006, 192.0, 1.0, 0.0, 255.0, 192.0, 31.0, 112.0, 0.0, 0.0, 0.0, 1.6896027857400064E9, 0.0, 2023-07-17 16:06:25.740
61.0, -179162.46404200364, -181095.44290249862, -177914.11911417474, -177822.65577586362, -180074.52697450246, -181004.56070954332, -183292.21705105508, 187500.0, 0.032, -0.008, 1.006, 192.0, 0.0, 0.0, 0.0, 0.0, 0.0, 0.0, 0.0, 0.0, 0.0, 1.6896027857400513E9, 0.0, 2023-07-17 16:06:25.740
62.0, -179230.4580486367, -181149.33295838034, -177883.60898299326, -177843.0852702958, -180067.12854708775, -180950.69300540604, -183233.58842534883, 187500.0, 0.032, -0.008, 1.006, 192.0, 0.0, 0.0, 0.0, 0.0, 0.0, 0.0, 0.0, 0.0, 0.0, 1.689602785740092E9, 0.0, 2023-07-17 16:06:25.740
63.0, -179243.42206042077, -181142.18040015464, -177889.1298638737, -177854.9316948571, -180037.22191300654, -180944.8144966143, -183203.1453494007, 187500.0, 0.032, -0.008, 1.006, 192.0, 0.0, 0.0, 0.0, 0.0, 0.0, 0.0, 0.0, 0.0, 0.0, 1.6896027857401357E9, 0.0, 2023-07-17 16:06:25.740
64.0, -179305.76107570663, -181163.61572308728, -177885.84415743878, -177832.6246538907, -179992.80899677385, -180924.6532231156, -183187.90145968218, 187500.0, 0.032, -0.008, 1.006, 192.0, 0.0, 0.0, 0.0, 0.0, 0.0, 0.0, 0.0, 0.0, 0.0, 1.689602785740174E9, 0.0, 2023-07-17 16:06:25.740
65.0, -179345.6365878149, -181205.05585730742, -177883.36311380425, -177871.69550319857, -180014.11020923976, -180895.43949311253, -183141.96862482652, 187500.0, 0.032, -0.008, 1.006, 192.0, 0.0, 0.0, 0.0, 0.0, 0.0, 0.0, 0.0, 0.0, 0.0, 1.6896027857402124E9, 0.0, 2023-07-17 16:06:25.740
66.0, -179335.80182025456, -181169.65069409023, -177910.31931761734, -177859.55850595934, -179986.10347343725, -180913.0079642544, -183162.44282274757, 187500.0, 0.032, -0.008, 1.006, 192.0, 0.0, 0.0, 0.0, 0.0, 0.0, 0.0, 0.0, 0.0, 0.0, 1.6896027857402575E9, 0.0, 2023-07-17 16:06:25.740
67.0, -179389.98244881423, -181197.45626419262, -177895.92479418812, -177840.76068887243, -179970.16667964062, -180899.90984200357, -183154.26208427694, 187500.0, 0.032, -0.008, 1.006, 192.0, 0.0, 0.0, 0.0, 0.0, 0.0, 0.0, 0.0, 0.0, 0.0, 1.689602785740301E9, 0.0, 2023-07-17 16:06:25.740
68.0, -179409.27200427916, -181224.524226728, -177876.8364044233, -177885.5312330164, -179994.57478458583, -180885.47061508545, -183113.17957796808, 187500.0, 0.032, -0.008, 1.006, 192.0, 0.0, 0.0, 0.0, 0.0, 0.0, 0.0, 0.0, 0.0, 0.0, 1.6896027857403457E9, 0.0, 2023-07-17 16:06:25.740
69.0, -179413.67529793683, -181200.9654880721, -177905.06665767034, -177866.37578801822, -179974.65938027613, -180912.27035668737, -183142.75093588245, 187500.0, 0.032, -0.008, 1.006, 192.0, 0.0, 0.0, 0.0, 0.0, 0.0, 0.0, 0.0, 0.0, 0.0, 1.6896027857403915E9, 0.0, 2023-07-17 16:06:25.740
70.0, -179455.02602517916, -181230.26862505302, -177881.41851203665, -177845.32044474132, -179961.3824440697, -180879.52505106034, -183116.84526405876, 187500.0, 0.032, -0.008, 1.004, 192.0, 1.0, 0.0, 255.0, 192.0, 31.0, 96.0, 0.0, 0.0, 0.0, 1.68960278574049E9, 0.0, 2023-07-17 16:06:25.740
71.0, -179441.4585162948, -181224.90420638374, -177866.59930546276, -177869.46032875305, -179961.44949930307, -180863.43179505251, -183076.47801357246, 187500.0, 0.032, -0.008, 1.004, 192.0, 0.0, 0.0, 0.0, 0.0, 0.0, 0.0, 0.0, 0.0, 0.0, 1.6896027857405407E9, 0.0, 2023-07-17 16:06:25.740
72.0, -179453.12612690046, -181203.15595902872, -177886.64882023918, -177835.44097369208, -179921.84220812825, -180875.5911440362, -183094.22529866998, 187500.0, 0.032, -0.008, 1.004, 192.0, 0.0, 0.0, 0.0, 0.0, 0.0, 0.0, 0.0, 0.0, 0.0, 1.6896027857405844E9, 0.0, 2023-07-17 16:06:25.740
73.0, -179512.17943575137, -181254.2296951091, -177865.43701475108, -177848.06970930932, -179930.17940881007, -180843.35992853166, -183062.21760061, 187500.0, 0.032, -0.008, 1.004, 192.0, 0.0, 0.0, 0.0, 0.0, 0.0, 0.0, 0.0, 0.0, 0.0, 1.689602785740636E9, 0.0, 2023-07-17 16:06:25.740
74.0, -179511.03949678416, -181245.06547988244, -177874.04243636638, -177871.76255843195, -179931.34169952176, -180841.19180931948, -183045.72201320197, 187500.0, 0.032, -0.008, 1.004, 192.0, 0.0, 0.0, 0.0, 0.0, 0.0, 0.0, 0.0, 0.0, 0.0, 1.6896027857406878E9, 0.0, 2023-07-17 16:06:25.740
75.0, -179558.91693340742, -181244.01494789304, -177881.57497424784, -177844.15815402963, -179892.98610603646, -180837.68258544, -183050.3488243042, 187500.0, 0.032, -0.008, 1.004, 192.0, 0.0, 0.0, 0.0, 0.0, 0.0, 0.0, 0.0, 0.0, 0.0, 1.689602785740741E9, 0.0, 2023-07-17 16:06:25.740
76.0, -179602.6816490509, -181279.9342012327, -177859.55850595934, -177865.45936649555, -179904.3631439642, -180800.95866929993, -183003.0972365257, 187500.0, 0.032, -0.008, 1.004, 192.0, 0.0, 0.0, 0.0, 0.0, 0.0, 0.0, 0.0, 0.0, 0.0, 1.6896027857407973E9, 0.0, 2023-07-17 16:06:25.740
77.0, -179589.09178842208, -181249.31231132895, -177885.17360510514, -177857.94918035856, -179893.74606534792, -180821.85755036565, -183023.83965538023, 187500.0, 0.032, -0.008, 1.004, 192.0, 0.0, 0.0, 0.0, 0.0, 0.0, 0.0, 0.0, 0.0, 0.0, 1.68960278574086E9, 0.0, 2023-07-17 16:06:25.740
78.0, -179630.73308834233, -181268.2442388826, -177874.82474742233, -177821.2699677074, -179883.3972076651, -180824.22683527792, -183041.63164396666, 187500.0, 0.032, -0.008, 1.004, 192.0, 0.0, 0.0, 0.0, 0.0, 0.0, 0.0, 0.0, 0.0, 0.0, 1.689602785740911E9, 0.0, 2023-07-17 16:06:25.740
79.0, -179637.32685295664, -181286.70677980265, -177837.5196859264, -177850.86367736623, -179899.84809158422, -180794.09668375214, -182992.36839918714, 187500.0, 0.032, -0.008, 1.004, 192.0, 0.0, 0.0, 0.0, 0.0, 0.0, 0.0, 0.0, 0.0, 0.0, 1.689602785740954E9, 0.0, 2023-07-17 16:06:25.740
80.0, -179641.21605649186, -181265.3385121034, -177876.99286663448, -177847.44386046455, -179889.94626879052, -180828.11603881314, -183024.28669026933, 187500.0, 0.03, -0.008, 1.004, 192.0, 0.0, 240.0, 255.0, 192.0, 31.0, 96.0, 0.0, 0.0, 0.0, 1.6896027857409952E9, 0.0, 2023-07-17 16:06:25.740
81.0, -179707.84660671314, -181309.8408353139, -177864.43118625061, -177857.99388384746, -179886.4593966555, -180818.25891950834, -183026.34305075923, 187500.0, 0.03, -0.008, 1.004, 192.0, 0.0, 0.0, 0.0, 0.0, 0.0, 0.0, 0.0, 0.0, 0.0, 1.6896027857410393E9, 0.0, 2023-07-17 16:06:25.741
82.0, -179684.1090541016, -181289.5454513485, -177833.9210550691, -177863.9841513615, -179877.27282968437, -180777.64579983306, -182971.02248323234, 187500.0, 0.03, -0.008, 1.004, 192.0, 0.0, 0.0, 0.0, 0.0, 0.0, 0.0, 0.0, 0.0, 0.0, 1.6896027857410817E9, 0.0, 2023-07-17 16:06:25.741
83.0, -179711.4675893149, -181280.8506227554, -177864.76646241744, -177838.70432838253, -179862.74419578843, -180801.15983500003, -183003.83484409272, 187500.0, 0.03, -0.008, 1.004, 192.0, 0.0, 0.0, 0.0, 0.0, 0.0, 0.0, 0.0, 0.0, 0.0, 1.689602785741125E9, 0.0, 2023-07-17 16:06:25.741
84.0, -179778.90280233655, -181331.9020070913, -177840.96185457252, -177852.20478203354, -179873.2048121935, -180772.14727069705, -182981.37134091512, 187500.0, 0.03, -0.008, 1.004, 192.0, 0.0, 0.0, 0.0, 0.0, 0.0, 0.0, 0.0, 0.0, 0.0, 1.6896027857411828E9, 0.0, 2023-07-17 16:06:25.741
85.0, -179752.43833690148, -181300.29664043148, -177843.95698832953, -177867.38161651872, -179871.12609995916, -180767.65457006154, -182964.56282908475, 187500.0, 0.03, -0.008, 1.004, 192.0, 0.0, 0.0, 0.0, 0.0, 0.0, 0.0, 0.0, 0.0, 0.0, 1.6896027857413E9, 0.0, 2023-07-17 16:06:25.741
86.0, -179791.12920655363, -181299.53668112002, -177859.7820234039, -177843.733470885, -179845.9580357025, -180782.29496267976, -182995.02825677732, 187500.0, 0.03, -0.008, 1.004, 192.0, 0.0, 0.0, 0.0, 0.0, 0.0, 0.0, 0.0, 0.0, 0.0, 1.6896027857413533E9, 0.0, 2023-07-17 16:06:25.741
87.0, -179829.7530209724, -181333.1090012919, -177823.3710316862, -177857.50214546945, -179840.21363737746, -180731.57885451065, -182936.84666596015, 187500.0, 0.03, -0.008, 1.004, 192.0, 0.0, 0.0, 0.0, 0.0, 0.0, 0.0, 0.0, 0.0, 0.0, 1.6896027857414088E9, 0.0, 2023-07-17 16:06:25.741
88.0, -179835.38566057512, -181317.4404284287, -177861.57016296033, -177872.4331107656, -179831.2505878509, -180750.13080240856, -182941.36171834014, 187500.0, 0.03, -0.008, 1.004, 192.0, 0.0, 0.0, 0.0, 0.0, 0.0, 0.0, 0.0, 0.0, 0.0, 1.689602785741459E9, 0.0, 2023-07-17 16:06:25.741
89.0, -179912.02979231236, -181347.5035247211, -177864.56529671734, -177865.52642172892, -179813.2350818199, -180742.79943022723, -182948.33546261018, 187500.0, 0.03, -0.008, 1.004, 192.0, 0.0, 0.0, 0.0, 0.0, 0.0, 0.0, 0.0, 0.0, 0.0, 1.6896027857415085E9, 0.0, 2023-07-17 16:06:25.741
90.0, -179923.63034768467, -181358.6123417154, -177853.6352936787, -177900.3504395903, -179827.8531226937, -180718.0113456263, -182903.63197369958, 187500.0, 0.03, -0.014, 1.004, 192.0, 0.0, 240.0, 255.0, 144.0, 31.0, 96.0, 0.0, 0.0, 0.0, 1.6896027857415545E9, 0.0, 2023-07-17 16:06:25.741
91.0, -179921.2163592835, -181326.96227156668, -177867.29220954087, -177872.09783459877, -179801.70158168097, -180726.57206375268, -182921.64747973057, 187500.0, 0.03, -0.014, 1.004, 192.0, 0.0, 0.0, 0.0, 0.0, 0.0, 0.0, 0.0, 0.0, 0.0, 1.6896027857416124E9, 0.0, 2023-07-17 16:06:25.741
92.0, -179978.2803628779, -181363.5073737511, -177841.4312412061, -177868.00746536345, -179795.64425893358, -180710.56821472268, -182912.9750028819, 187500.0, 0.03, -0.014, 1.004, 192.0, 0.0, 0.0, 0.0, 0.0, 0.0, 0.0, 0.0, 0.0, 0.0, 1.6896027857416608E9, 0.0, 2023-07-17 16:06:25.741
93.0, -179962.00829291443, -181348.57640845494, -177842.50412493994, -177892.16970111965, -179802.8415206482, -180696.12898780455, -182881.01200831082, 187500.0, 0.03, -0.014, 1.004, 192.0, 0.0, 0.0, 0.0, 0.0, 0.0, 0.0, 0.0, 0.0, 0.0, 1.6896027857417157E9, 0.0, 2023-07-17 16:06:25.741
94.0, -180003.9848690015, -181351.32567302295, -177872.88014565472, -177883.27370682644, -179785.87654660663, -180719.37480203807, -182921.4686657749, 187500.0, 0.03, -0.014, 1.004, 192.0, 0.0, 0.0, 0.0, 0.0, 0.0, 0.0, 0.0, 0.0, 0.0, 1.689602785741771E9, 0.0, 2023-07-17 16:06:25.741
95.0, -180043.1004217983, -181382.12637688237, -177850.55075294385, -177902.6973727581, -179796.85125313417, -180694.65377267048, -182887.02462756928, 187500.0, 0.03, -0.014, 1.004, 192.0, 0.0, 0.0, 0.0, 0.0, 0.0, 0.0, 0.0, 0.0, 0.0, 1.6896027857418215E9, 0.0, 2023-07-17 16:06:25.741
96.0, -179991.95963048455, -181324.5482831655, -177851.1318982997, -177876.81405267885, -179776.46646219093, -180689.13289179004, -182874.48529892985, 187500.0, 0.03, -0.014, 1.004, 192.0, 0.0, 0.0, 0.0, 0.0, 0.0, 0.0, 0.0, 0.0, 0.0, 1.6896027857418897E9, 0.0, 2023-07-17 16:06:25.741
97.0, -180016.52419764095, -181334.4948094481, -177850.4836977105, -177841.56535167282, -179775.2818197348, -180715.61970896958, -182926.7213257219, 187500.0, 0.03, -0.014, 1.004, 192.0, 0.0, 0.0, 0.0, 0.0, 0.0, 0.0, 0.0, 0.0, 0.0, 1.6896027857419424E9, 0.0, 2023-07-17 16:06:25.741
98.0, -180012.5902906168, -181355.39369051383, -177820.55471188485, -177876.50112825647, -179818.86772142266, -180695.48078721535, -182902.4696829879, 187500.0, 0.03, -0.014, 1.004, 192.0, 0.0, 0.0, 0.0, 0.0, 0.0, 0.0, 0.0, 0.0, 0.0, 1.6896027857419927E9, 0.0, 2023-07-17 16:06:25.741
99.0, -179966.99273192798, -181299.46962588665, -177841.3865377172, -177854.77523264592, -179812.3410120417, -180720.73825844983, -182937.3831078271, 187500.0, 0.03, -0.014, 1.004, 192.0, 0.0, 0.0, 0.0, 0.0, 0.0, 0.0, 0.0, 0.0, 0.0, 1.6896027857420964E9, 0.0, 2023-07-17 16:06:25.742
100.0, -179924.30090001834, -181256.6213317658, -177821.29231945187, -177778.89106022014, -179808.5859189732, -180725.87915967454, -182988.8368235632, 187500.0, 0.028, -0.014, 1.002, 192.0, 0.0, 224.0, 255.0, 144.0, 31.0, 80.0, 0.0, 0.0, 0.0, 1.689602785742149E9, 0.0, 2023-07-17 16:06:25.742
101.0, -179894.7518938484, -181270.92644821721, -177782.33322886625, -177819.68299385108, -179863.68296905555, -180709.7412001778, -182974.91168676756, 187500.0, 0.028, -0.014, 1.002, 192.0, 0.0, 0.0, 0.0, 0.0, 0.0, 0.0, 0.0, 0.0, 0.0, 1.6896027857422094E9, 0.0, 2023-07-17 16:06:25.742
102.0, -179824.187436603, -181206.6651829082, -177802.91918550959, -177796.59364182875, -179870.54495460333, -180737.94910168042, -183014.09429479772, 187500.0, 0.028, -0.014, 1.002, 192.0, 0.0, 0.0, 0.0, 0.0, 0.0, 0.0, 0.0, 0.0, 0.0, 1.6896027857422605E9, 0.0, 2023-07-17 16:06:25.742
103.0, -179782.88141284962, -181164.53214460996, -177852.5847616893, -177742.83769641374, -179888.202832723, -180815.1296752846, -183118.38753442618, 187500.0, 0.028, -0.014, 1.002, 192.0, 0.0, 0.0, 0.0, 0.0, 0.0, 0.0, 0.0, 0.0, 0.0, 1.6896027857423165E9, 0.0, 2023-07-17 16:06:25.742
104.0, -179678.94580113242, -181179.73133083957, -177802.91918550959, -177769.27981010437, -179957.09090913428, -180810.681678138, -183123.1708077396, 187500.0, 0.028, -0.014, 1.002, 192.0, 0.0, 0.0, 0.0, 0.0, 0.0, 0.0, 0.0, 0.0, 0.0, 1.6896027857423682E9, 0.0, 2023-07-17 16:06:25.742
105.0, -179612.3376026556, -181151.8140020149, -177800.01345873042, -177785.39541785663, -179981.20844140154, -180810.61462290463, -183118.99103152647, 187500.0, 0.028, -0.014, 1.002, 192.0, 0.0, 0.0, 0.0, 0.0, 0.0, 0.0, 0.0, 0.0, 0.0, 1.6896027862154126E9, 0.0, 2023-07-17 16:06:26.215
106.0, -179606.5932043306, -181124.52252203497, -177856.11633731323, -177755.28761807535, -179977.2298308885, -180878.00513243736, -183198.3844278317, 187500.0, 0.028, -0.014, 1.002, 192.0, 0.0, 0.0, 0.0, 0.0, 0.0, 0.0, 0.0, 0.0, 0.0, 1.6896027862155724E9, 0.0, 2023-07-17 16:06:26.215
107.0, -179571.92564868042, -181129.9539959376, -177834.7704213584, -177748.76090869438, -180019.87695930921, -180884.42008309605, -183221.38437287623, 187500.0, 0.028, -0.014, 1.002, 192.0, 0.0, 0.0, 0.0, 0.0, 0.0, 0.0, 0.0, 0.0, 0.0, 1.689602786215668E9, 0.0, 2023-07-17 16:06:26.215
108.0, -179513.16291250743, -181111.78202769544, -177800.03581047486, -177771.38087408314, -180030.5387414144, -180847.47264951142, -183171.67409320764, 187500.0, 0.028, -0.014, 1.002, 192.0, 0.0, 0.0, 0.0, 0.0, 0.0, 0.0, 0.0, 0.0, 0.0, 1.6896027862157187E9, 0.0, 2023-07-17 16:06:26.215
109.0, -179487.95014476182, -181073.5828964213, -177833.4293166911, -177750.9960831399, -179997.16758694264, -180885.47061508545, -183212.28721288292, 187500.0, 0.028, -0.008, 1.004, 192.0, 0.0, 224.0, 255.0, 192.0, 31.0, 96.0, 0.0, 0.0, 0.0, 1.689602786215767E9, 0.0, 2023-07-17 16:06:26.215
110.0, -179518.14735152095, -181106.3952572817, -177831.95410155703, -177745.0505191148, -180010.64568884918, -180885.64942904108, -183221.22791066504, 187500.0, 0.028, -0.008, 1.004, 192.0, 0.0, 0.0, 0.0, 0.0, 0.0, 0.0, 0.0, 0.0, 0.0, 1.6896027862158144E9, 0.0, 2023-07-17 16:06:26.215
111.0, -179501.7188193463, -181115.91710041967, -177809.82587454628, -177778.77930149785, -180025.95663380108, -180857.01684439383, -183165.52736348243, 187500.0, 0.028, -0.008, 1.004, 192.0, 0.0, 0.0, 0.0, 0.0, 0.0, 0.0, 0.0, 0.0, 0.0, 1.6896027862158608E9, 0.0, 2023-07-17 16:06:26.215
112.0, -179487.5254616172, -181084.4905477155, -177851.7353954, -177759.66855998858, -180013.9313952841, -180897.78642628033, -183212.37661986073, 187500.0, 0.028, -0.008, 1.004, 192.0, 0.0, 0.0, 0.0, 0.0, 0.0, 0.0, 0.0, 0.0, 0.0, 1.6896027862159028E9, 0.0, 2023-07-17 16:06:26.215
113.0, -179509.56428165012, -181108.7421904495, -177861.52545947142, -177749.52086800587, -180036.81958160634, -180908.2917461743, -183242.37266091976, 187500.0, 0.028, -0.008, 1.004, 192.0, 0.0, 0.0, 0.0, 0.0, 0.0, 0.0, 0.0, 0.0, 0.0, 1.6896027862159455E9, 0.0, 2023-07-17 16:06:26.215
114.0, -179475.2543539112, -181100.80732116787, -177820.33119444028, -177775.7618159964, -180042.16164853118, -180872.57365853473, -183183.8781456802, 187500.0, 0.028, -0.008, 1.004, 192.0, 0.0, 0.0, 0.0, 0.0, 0.0, 0.0, 0.0, 0.0, 0.0, 1.6896027862161083E9, 0.0, 2023-07-17 16:06:26.216
115.0, -179463.38557760546, -181074.43226271062, -177856.76453790243, -177768.2516298594, -180021.35217444328, -180908.91759501907, -183219.64093680872, 187500.0, 0.028, -0.008, 1.004, 192.0, 0.0, 0.0, 0.0, 0.0, 0.0, 0.0, 0.0, 0.0, 0.0, 1.689602786216153E9, 0.0, 2023-07-17 16:06:26.216
116.0, -179520.33782247757, -181132.1444668942, -177845.25338950794, -177768.94453393752, -180031.61162514827, -180912.2480049429, -183222.85958801027, 187500.0, 0.028, -0.008, 1.004, 192.0, 0.0, 0.0, 0.0, 0.0, 0.0, 0.0, 0.0, 0.0, 0.0, 1.6896027862162004E9, 0.0, 2023-07-17 16:06:26.216
117.0, -179507.68673511586, -181144.0132432, -177823.25927296391, -177801.71219130902, -180041.31228224188, -180876.1499376476, -183165.6838256936, 187500.0, 0.028, -0.008, 1.004, 192.0, 0.0, 0.0, 0.0, 0.0, 0.0, 0.0, 0.0, 0.0, 0.0, 1.6896027862162597E9, 0.0, 2023-07-17 16:06:26.216
118.0, -179499.8189210676, -181111.80437943988, -177867.06869209633, -177780.54508930983, -180020.32399419835, -180909.00700199688, -183208.1521401587, 187500.0, 0.028, -0.008, 1.004, 192.0, 0.0, 0.0, 0.0, 0.0, 0.0, 0.0, 0.0, 0.0, 0.0, 1.689602786216303E9, 0.0, 2023-07-17 16:06:26.216
119.0, -179526.70806964734, -181144.2144089001, -177849.8354971213, -177771.82790897228, -180034.18207576062, -180898.23346116944, -183209.56030005935, 187500.0, 0.03, -0.01, 1.002, 192.0, 0.0, 240.0, 255.0, 176.0, 31.0, 80.0, 0.0, 0.0, 0.0, 1.6896027862163448E9, 0.0, 2023-07-17 16:06:26.216
120.0, -179496.51086288822, -181140.4593158316, -177824.15334274215, -177794.22435691647, -180034.51735192747, -180860.12373687312, -183152.74216565397, 187500.0, 0.03, -0.01, 1.002, 192.0, 0.0, 0.0, 0.0, 0.0, 0.0, 0.0, 0.0, 0.0, 0.0, 1.689602786216394E9, 0.0, 2023-07-17 16:06:26.216
121.0, -179489.1124354735, -181109.5915567388, -177848.04735756485, -177756.71812972048, -179998.30752590986, -180875.43468182502, -183176.0773868653, 187500.0, 0.03, -0.01, 1.002, 192.0, 0.0, 0.0, 0.0, 0.0, 0.0, 0.0, 0.0, 0.0, 0.0, 1.6896027862164357E9, 0.0, 2023-07-17 16:06:26.216
122.0, -179546.28819779019, -181162.83341203135, -177828.89191256667, -177754.0582721303, -180005.21421494655, -180864.70584448648, -183165.10268033776, 187500.0, 0.03, -0.01, 1.002, 192.0, 0.0, 0.0, 0.0, 0.0, 0.0, 0.0, 0.0, 0.0, 0.0, 1.689602786216477E9, 0.0, 2023-07-17 16:06:26.216
123.0, -179547.11521233502, -181175.5068511375, -177822.05227876335, -177800.23697617496, -180016.54654938538, -180853.194696092, -183128.8705025757, 187500.0, 0.03, -0.01, 1.002, 192.0, 0.0, 0.0, 0.0, 0.0, 0.0, 0.0, 0.0, 0.0, 0.0, 1.6896027862165225E9, 0.0, 2023-07-17 16:06:26.216
124.0, -179570.96452366884, -181165.11328996578, -177859.08911932577, -177790.17869117006, -179978.86150823373, -180882.40842609506, -183157.72660466752, 187500.0, 0.03, -0.01, 1.002, 192.0, 0.0, 0.0, 0.0, 0.0, 0.0, 0.0, 0.0, 0.0, 0.0, 1.6896027862165685E9, 0.0, 2023-07-17 16:06:26.216
125.0, -179623.53582662772, -181204.83233986289, -177830.970624801, -177795.85603426173, -179959.01315915742, -180834.0839545827, -183105.04354298636, 187500.0, 0.03, -0.01, 1.002, 192.0, 0.0, 0.0, 0.0, 0.0, 0.0, 0.0, 0.0, 0.0, 0.0, 1.6896027862166147E9, 0.0, 2023-07-17 16:06:26.216
126.0, -179619.4007539035, -181201.94896482813, -177852.7859273894, -177823.75101134196, -179965.53986853838, -180834.24041679388, -183083.27294388687, 187500.0, 0.03, -0.01, 1.002, 192.0, 0.0, 0.0, 0.0, 0.0, 0.0, 0.0, 0.0, 0.0, 0.0, 1.689602786216658E9, 0.0, 2023-07-17 16:06:26.216
127.0, -179661.51144045728, -181213.21424403362, -177879.4292067801, -177809.89292977966, -179940.90824614864, -180851.6300739801, -183103.79184529686, 187500.0, 0.03, -0.01, 1.002, 192.0, 0.0, 0.0, 0.0, 0.0, 0.0, 0.0, 0.0, 0.0, 0.0, 1.6896027862167015E9, 0.0, 2023-07-17 16:06:26.216
128.0, -179690.38989429353, -181242.56208450344, -177831.90939806812, -177828.35547069972, -179929.21828379852, -180798.3211634542, -183043.2409695674, 187500.0, 0.03, -0.01, 1.002, 192.0, 0.0, 0.0, 0.0, 0.0, 0.0, 0.0, 0.0, 0.0, 0.0, 1.6896027862167473E9, 0.0, 2023-07-17 16:06:26.216
129.0, -179684.82430992418, -181223.07136333841, -177855.5798954463, -177838.10083128224, -179923.18331279556, -180810.90519558254, -183044.1573910901, 187500.0, 0.032, -0.008, 1.004, 192.0, 1.0, 0.0, 255.0, 192.0, 31.0, 96.0, 0.0, 0.0, 0.0, 1.6896027862168493E9, 0.0, 2023-07-17 16:06:26.216
130.0, -179741.1283542071, -181246.65245373876, -177856.80924139134, -177807.5683483563, -179898.3728764502, -180803.01502978982, -183049.52180975938, 187500.0, 0.032, -0.008, 1.004, 192.0, 0.0, 0.0, 0.0, 0.0, 0.0, 0.0, 0.0, 0.0, 0.0, 1.689602786216898E9, 0.0, 2023-07-17 16:06:26.216
131.0, -179766.2740667193, -181275.15092791928, -177830.74710735647, -177838.6819766381, -179910.7780946229, -180775.58943934317, -183003.72308537044, 187500.0, 0.032, -0.008, 1.004, 192.0, 0.0, 0.0, 0.0, 0.0, 0.0, 0.0, 0.0, 0.0, 0.0, 1.6896027862169428E9, 0.0, 2023-07-17 16:06:26.216
132.0, -179741.6200925851, -181233.46492451013, -177852.96474134503, -177806.42840938907, -179882.92782103157, -180788.4640441494, -183020.50924545637, 187500.0, 0.032, -0.008, 1.004, 192.0, 0.0, 0.0, 0.0, 0.0, 0.0, 0.0, 0.0, 0.0, 0.0, 1.6896027862169864E9, 0.0, 2023-07-17 16:06:26.216
133.0, -179782.47908144942, -181269.20536389417, -177837.3855754597, -177788.23408940245, -179888.53810888986, -180785.60302085913, -183030.52282697236, 187500.0, 0.032, -0.008, 1.004, 192.0, 0.0, 0.0, 0.0, 0.0, 0.0, 0.0, 0.0, 0.0, 0.0, 1.689602786217032E9, 0.0, 2023-07-17 16:06:26.217
134.0, -179773.9407150675, -181280.537698333, -177829.1154300112, -177834.18927600258, -179916.74601039244, -180772.9742852419, -183004.32658247073, 187500.0, 0.032, -0.008, 1.004, 192.0, 0.0, 0.0, 0.0, 0.0, 0.0, 0.0, 0.0, 0.0, 0.0, 1.6896027862170773E9, 0.0, 2023-07-17 16:06:26.217
135.0, -179751.4772118899, -181238.60582573485, -177848.2261715205, -177800.84047327525, -179884.17951872107, -180797.44944542044, -183039.88820789914, 187500.0, 0.032, -0.008, 1.004, 192.0, 0.0, 0.0, 0.0, 0.0, 0.0, 0.0, 0.0, 0.0, 0.0, 1.6896027862171214E9, 0.0, 2023-07-17 16:06:26.217
136.0, -179768.66570337603, -181268.0430731825, -177808.14949371215, -177791.5644993263, -179886.32528618877, -180783.18903245797, -183034.72495492996, 187500.0, 0.032, -0.008, 1.004, 192.0, 0.0, 0.0, 0.0, 0.0, 0.0, 0.0, 0.0, 0.0, 0.0, 1.689602786217167E9, 0.0, 2023-07-17 16:06:26.217
137.0, -179752.30422643476, -181271.50759357307, -177822.54401714136, -177832.64700563517, -179925.06085932982, -180782.2279074464, -183025.29251876983, 187500.0, 0.032, -0.008, 1.004, 192.0, 0.0, 0.0, 0.0, 0.0, 0.0, 0.0, 0.0, 0.0, 0.0, 1.6896027862172294E9, 0.0, 2023-07-17 16:06:26.217
138.0, -179755.38876716958, -181249.55818051795, -177863.26889553893, -177798.62765057417, -179917.66243191512, -180832.20640804846, -183085.61987705468, 187500.0, 0.032, -0.008, 1.004, 192.0, 0.0, 0.0, 0.0, 0.0, 0.0, 0.0, 0.0, 0.0, 0.0, 1.6896027862172854E9, 0.0, 2023-07-17 16:06:26.217
139.0, -179773.04664528926, -181276.91671573123, -177818.69951709505, -177786.0659701903, -179919.18235053806, -180809.72055312642, -183069.68308325805, 187500.0, 0.03, -0.01, 1.004, 192.0, 0.0, 240.0, 255.0, 176.0, 31.0, 96.0, 0.0, 0.0, 0.0, 1.689602786217334E9, 0.0, 2023-07-17 16:06:26.217
140.0, -179744.6822815755, -181264.2432766251, -177812.0163455029, -177810.27290943539, -179923.25036802894, -180786.8770702931, -183034.0544025963, 187500.0, 0.03, -0.01, 1.004, 192.0, 0.0, 0.0, 0.0, 0.0, 0.0, 0.0, 0.0, 0.0, 0.0, 1.6896027862173872E9, 0.0, 2023-07-17 16:06:26.217
141.0, -179760.64142711658, -181253.2238666086, -177849.61197967673, -177786.75887426842, -179908.54292017734, -180817.49896019686, -183069.973655936, 187500.0, 0.03, -0.01, 1.004, 192.0, 0.0, 0.0, 0.0, 0.0, 0.0, 0.0, 0.0, 0.0, 0.0, 1.689602786217435E9, 0.0, 2023-07-17 16:06:26.217
142.0, -179803.22150030395, -181292.56293684995, -177819.72769734, -177800.50519710843, -179908.78878936634, -180787.6146778601, -183028.37705950465, 187500.0, 0.03, -0.01, 1.004, 192.0, 0.0, 0.0, 0.0, 0.0, 0.0, 0.0, 0.0, 0.0, 0.0, 1.6896027862174776E9, 0.0, 2023-07-17 16:06:26.217
143.0, -179791.08450306472, -181275.6426662973, -177838.4361074491, -177827.46140092151, -179906.33009747628, -180782.4290731465, -183011.90382384107, 187500.0, 0.03, -0.01, 1.004, 192.0, 0.0, 0.0, 0.0, 0.0, 0.0, 0.0, 0.0, 0.0, 0.0, 1.68960278621753E9, 0.0, 2023-07-17 16:06:26.217
144.0, -179817.7501341999, -181269.47358482762, -177842.86175285123, -177778.3099148643, -179869.69558831403, -180783.9713435139, -183021.87270186815, 187500.0, 0.03, -0.01, 1.004, 192.0, 0.0, 0.0, 0.0, 0.0, 0.0, 0.0, 0.0, 0.0, 0.0, 1.689602786217648E9, 0.0, 2023-07-17 16:06:26.217
145.0, -179838.6043117767, -181302.66592534375, -177806.38370590017, -177812.8657117922, -179888.7169228455, -180755.24935188884, -182983.42770140502, 187500.0, 0.03, -0.01, 1.004, 192.0, 0.0, 0.0, 0.0, 0.0, 0.0, 0.0, 0.0, 0.0, 0.0, 1.689602786217696E9, 0.0, 2023-07-17 16:06:26.217
146.0, -179813.95033764248, -181273.27338138502, -177829.33894745578, -177820.35354618475, -179883.44191115402, -180773.5554305977, -183003.52191967034, 187500.0, 0.03, -0.01, 1.004, 192.0, 0.0, 0.0, 0.0, 0.0, 0.0, 0.0, 0.0, 0.0, 0.0, 1.689602786217748E9, 0.0, 2023-07-17 16:06:26.217
147.0, -179868.53329760235, -181290.50657636006, -177834.21162774702, -177802.89683376515, -179851.59067530523, -180770.00150322934, -183011.21091976296, 187500.0, 0.03, -0.01, 1.004, 192.0, 0.0, 0.0, 0.0, 0.0, 0.0, 0.0, 0.0, 0.0, 0.0, 1.6896027862178051E9, 0.0, 2023-07-17 16:06:26.217
148.0, -179889.11925424568, -181312.92537604875, -177819.6606421066, -177841.54299992838, -179859.25732365338, -180735.24454060133, -182964.6298843181, 187500.0, 0.03, -0.01, 1.004, 192.0, 0.0, 0.0, 0.0, 0.0, 0.0, 0.0, 0.0, 0.0, 0.0, 1.6896027862178516E9, 0.0, 2023-07-17 16:06:26.217
149.0, -179899.2222427395, -181290.66303857125, -177848.51674419842, -177829.04837477786, -179834.446887308, -180753.86354373262, -182973.3247129112, 187500.0, 0.038, -0.01, 1.006, 192.0, 1.0, 48.0, 255.0, 176.0, 31.0, 112.0, 0.0, 0.0, 0.0, 1.689602786217902E9, 0.0, 2023-07-17 16:06:26.217
150.0, -179950.94417940907, -181311.56191963697, -177820.44295316256, -177821.58289212978, -179809.07765735124, -180715.396191525, -182942.4793055629, 187500.0, 0.038, -0.01, 1.006, 192.0, 0.0, 0.0, 0.0, 0.0, 0.0, 0.0, 0.0, 0.0, 0.0, 1.689602786217962E9, 0.0, 2023-07-17 16:06:26.217
151.0, -179947.79258344087, -181309.88553880283, -177834.99393880297, -177850.8860291107, -179825.61794824817, -180703.92974661945, -182925.8719594326, 187500.0, 0.038, -0.01, 1.006, 192.0, 0.0, 0.0, 0.0, 0.0, 0.0, 0.0, 0.0, 0.0, 0.0, 1.6896027862180147E9, 0.0, 2023-07-17 16:06:26.218
152.0, -179957.85086844576, -181295.60277409587, -177854.59641869026, -177811.54695886935, -179808.85413990667, -180727.33202306414, -182962.64057906158, 187500.0, 0.038, -0.01, 1.006, 192.0, 0.0, 0.0, 0.0, 0.0, 0.0, 0.0, 0.0, 0.0, 0.0, 1.6896027862180564E9, 0.0, 2023-07-17 16:06:26.218
153.0, -179971.10545290774, -181315.294660961, -177803.67914482107, -177812.50808388094, -179805.0319916048, -180693.71499940337, -182926.922491422, 187500.0, 0.038, -0.01, 1.006, 192.0, 0.0, 0.0, 0.0, 0.0, 0.0, 0.0, 0.0, 0.0, 0.0, 1.6896027862181072E9, 0.0, 2023-07-17 16:06:26.218
154.0, -179947.68082471858, -181292.85350952786, -177828.9142643111, -177832.84817133527, -179820.96878540146, -180704.30972627518, -182925.1790553545, 187500.0, 0.038, -0.01, 1.006, 192.0, 0.0, 0.0, 0.0, 0.0, 0.0, 0.0, 0.0, 0.0, 0.0, 1.6896027862181587E9, 0.0, 2023-07-17 16:06:26.218
155.0, -179965.15988888263, -181287.10911120285, -177837.7208516265, -177784.3672376117, -179801.72393342544, -180716.8043514257, -182957.8349540037, 187500.0, 0.038, -0.01, 1.006, 192.0, 0.0, 0.0, 0.0, 0.0, 0.0, 0.0, 0.0, 0.0, 0.0, 1.6896027862182024E9, 0.0, 2023-07-17 16:06:26.218
156.0, -179977.96743845553, -181322.2460534866, -177814.3185751818, -177819.0124415174, -179835.83269546423, -180698.63238318355, -182932.86805544712, 187500.0, 0.038, -0.01, 1.006, 192.0, 0.0, 0.0, 0.0, 0.0, 0.0, 0.0, 0.0, 0.0, 0.0, 1.689602786218251E9, 0.0, 2023-07-17 16:06:26.218
157.0, -179935.16384782363, -181279.30835238795, -177837.56438941532, -177806.964851256, -179835.8103437198, -180724.0016131403, -182957.38791911458, 187500.0, 0.038, -0.01, 1.006, 192.0, 0.0, 0.0, 0.0, 0.0, 0.0, 0.0, 0.0, 0.0, 0.0, 1.6896027862182956E9, 0.0, 2023-07-17 16:06:26.218
158.0, -179939.18716182557, -181281.61058206685, -177824.80154333136, -177757.34397856522, -179826.62377674863, -180742.53120929375, -182992.6366201206, 187500.0, 0.038, -0.01, 1.006, 192.0, 0.0, 0.0, 0.0, 0.0, 0.0, 0.0, 0.0, 0.0, 0.0, 1.6896027862183907E9, 0.0, 2023-07-17 16:06:26.218
159.0, -179932.70515593354, -181303.13531197733, -177799.16409244112, -177800.54990059734, -179860.37491087615, -180719.1959880824, -182960.33834938268, 187500.0, 0.036000000000000004, -0.01, 1.008, 192.0, 1.0, 32.0, 255.0, 176.0, 31.0, 128.0, 0.0, 0.0, 0.0, 1.6896027862184396E9, 0.0, 2023-07-17 16:06:26.218
