%OpenBCI Raw EXG Data
%Number of channels = 8
%Sample Rate = 250 Hz
%Board = OpenBCI_GUI$BoardCytonSerial
Sample Index, EXG Channel 0, EXG Channel 1, EXG Channel 2, EXG Channel 3, EXG Channel 4, EXG Channel 5, EXG Channel 6, EXG Channel 7, Accel Channel 0, Accel Channel 1, Accel Channel 2, Other, Other, Other, Other, Other, Other, Other, Analog Channel 0, Analog Channel 1, Analog Channel 2, Timestamp, Other, Timestamp (Formatted)
0.0, -175724.09519244375, -180395.72154232522, -177784.7695690119, -177395.33512536707, -180592.2827830652, -181964.36696819868, -184482.7380159781, 187500.0, 0.02, -0.004, 0.502, 192.0, 0.0, 160.0, 255.0, 224.0, 15.0, 176.0, 0.0, 0.0, 0.0, 1.6896026936514869E9, 0.0, 2023-07-17 16:04:53.651
1.0, -175754.91824804764, -180402.36001042844, -177774.7559874959, -177407.33801213957, -180612.75698098625, -181963.0929187647, -184451.75849816305, 187500.0, 0.02, -0.004, 0.502, 192.0, 0.0, 0.0, 0.0, 0.0, 0.0, 0.0, 0.0, 0.0, 0.0, 1.6896026936515896E9, 0.0, 2023-07-17 16:04:53.651
2.0, -175770.36330346626, -180393.75458881314, -177754.43825178605, -177404.05230570465, -180621.4294578349, -181951.6041221147, -184415.14634074527, 187500.0, 0.02, -0.004, 0.502, 192.0, 0.0, 0.0, 0.0, 0.0, 0.0, 0.0, 0.0, 0.0, 0.0, 1.6896026936516623E9, 0.0, 2023-07-17 16:04:53.651
3.0, -175768.57516390982, -180376.7672630271, -177732.98057710894, -177394.70927652234, -180618.94841420036, -181935.37675564014, -184403.29991618395, 187500.0, 0.02, -0.004, 0.502, 192.0, 0.0, 0.0, 0.0, 0.0, 0.0, 0.0, 0.0, 0.0, 0.0, 1.689602693651722E9, 0.0, 2023-07-17 16:04:53.651
4.0, -175790.1445973092, -180388.1890044438, -177726.52092296135, -177401.59361381456, -180628.85023699407, -181932.26986316085, -184403.59048886187, 187500.0, 0.02, -0.004, 0.502, 192.0, 0.0, 0.0, 0.0, 0.0, 0.0, 0.0, 0.0, 0.0, 0.0, 1.6896026936517515E9, 0.0, 2023-07-17 16:04:53.651
5.0, -175774.11839653473, -180390.7371033117, -177714.51803618885, -177413.3729831425, -180648.00568199228, -181931.71106954946, -184378.7800525165, 187500.0, 0.02, -0.004, 0.502, 192.0, 0.0, 0.0, 0.0, 0.0, 0.0, 0.0, 0.0, 0.0, 0.0, 1.689602693651775E9, 0.0, 2023-07-17 16:04:53.651
6.0, -175781.5391756939, -180392.30172542355, -177729.80662939628, -177431.96963452932, -180675.2524584833, -181941.12115396516, -184405.57979411838, 187500.0, 0.02, -0.004, 0.502, 192.0, 0.0, 0.0, 0.0, 0.0, 0.0, 0.0, 0.0, 0.0, 0.0, 1.6896026936517975E9, 0.0, 2023-07-17 16:04:53.651
7.0, -175800.91813813665, -180375.31439963751, -177727.10206831718, -177434.0930502526, -180676.9958945508, -181930.16879918205, -184405.11040748484, 187500.0, 0.032, -0.008, 0.756, 192.0, 1.0, 0.0, 255.0, 192.0, 23.0, 160.0, 0.0, 0.0, 0.0, 1.6896026936518233E9, 0.0, 2023-07-17 16:04:53.651
8.0, -175795.68782993412, -180366.2172396442, -177717.8484461127, -177425.84525654858, -180668.43517642442, -181917.58476705372, -184398.89662252626, 187500.0, 0.032, -0.008, 0.756, 192.0, 0.0, 0.0, 0.0, 0.0, 0.0, 0.0, 0.0, 0.0, 0.0, 1.6896026936518455E9, 0.0, 2023-07-17 16:04:53.651
9.0, -175789.47404497553, -180377.6166293164, -177712.953414077, -177403.49351209326, -180648.05038548118, -181922.99388921188, -184387.13960494276, 187500.0, 0.032, -0.008, 0.756, 192.0, 0.0, 0.0, 0.0, 0.0, 0.0, 0.0, 0.0, 0.0, 0.0, 1.6896026936518922E9, 0.0, 2023-07-17 16:04:53.651
10.0, -175808.33891729583, -180383.40573113033, -177732.51119047537, -177403.00177371525, -180643.9376645014, -181947.87138079066, -184396.12500621378, 187500.0, 0.032, -0.008, 0.756, 192.0, 0.0, 0.0, 0.0, 0.0, 0.0, 0.0, 0.0, 0.0, 0.0, 1.6896026936519148E9, 0.0, 2023-07-17 16:04:53.651
11.0, -175802.32629803734, -180383.20456543023, -177721.42472522554, -177412.2330441753, -180656.2981791852, -181972.3465409692, -184394.40392189074, 187500.0, 0.032, -0.008, 0.756, 192.0, 0.0, 0.0, 0.0, 0.0, 0.0, 0.0, 0.0, 0.0, 0.0, 1.689602693651937E9, 0.0, 2023-07-17 16:04:53.651
12.0, -175820.02887964595, -180386.1773474428, -177723.39167873762, -177385.45565431783, -180630.21369340585, -181977.66625614956, -184373.1250611693, 187500.0, 0.032, -0.008, 0.756, 192.0, 0.0, 0.0, 0.0, 0.0, 0.0, 0.0, 0.0, 0.0, 0.0, 1.68960269365196E9, 0.0, 2023-07-17 16:04:53.651
13.0, -175816.13967611073, -180376.05200720453, -177726.45386772798, -177360.28759006114, -180582.6715329494, -181969.93255256803, -184363.7596802425, 187500.0, 0.032, -0.008, 0.756, 192.0, 0.0, 0.0, 0.0, 0.0, 0.0, 0.0, 0.0, 0.0, 0.0, 1.6896026936519823E9, 0.0, 2023-07-17 16:04:53.651
14.0, -175772.97845756751, -180390.84886203395, -177736.82507715526, -177358.9688371383, -180582.1797945714, -181964.23285773193, -184382.31162814042, 187500.0, 0.032, -0.008, 0.756, 192.0, 0.0, 0.0, 0.0, 0.0, 0.0, 0.0, 0.0, 0.0, 0.0, 1.6896026936520045E9, 0.0, 2023-07-17 16:04:53.652
15.0, -175805.23202481653, -180382.5787165855, -177745.58696098175, -177344.5072584757, -180566.3100560081, -181981.7566253849, -184384.9714857306, 187500.0, 0.032, -0.008, 0.756, 192.0, 0.0, 0.0, 0.0, 0.0, 0.0, 0.0, 0.0, 0.0, 0.0, 1.689602693652023E9, 0.0, 2023-07-17 16:04:53.652
16.0, -175759.0756725163, -180379.11419619492, -177736.57920796625, -177363.52859300718, -180580.7716346707, -181997.53695697035, -184376.54487807094, 187500.0, 0.032, -0.008, 0.756, 192.0, 0.0, 0.0, 0.0, 0.0, 0.0, 0.0, 0.0, 0.0, 0.0, 1.6896026936520412E9, 0.0, 2023-07-17 16:04:53.652
17.0, -175755.2758759589, -180378.28718165008, -177730.74540266342, -177375.35266582403, -180604.1292076265, -181991.63609643414, -184395.05212247994, 187500.0, 0.034, -0.008, 0.882, 192.0, 1.0, 16.0, 255.0, 192.0, 27.0, 144.0, 0.0, 0.0, 0.0, 1.689602693652062E9, 0.0, 2023-07-17 16:04:53.652
18.0, -175764.41773944112, -180376.70020779374, -177747.01747262687, -177365.54025000814, -180600.2847075802, -181996.91110812558, -184397.95784925914, 187500.0, 0.034, -0.008, 0.882, 192.0, 0.0, 0.0, 0.0, 0.0, 0.0, 0.0, 0.0, 0.0, 0.0, 1.6896026936520815E9, 0.0, 2023-07-17 16:04:53.652
19.0, -175691.9086804281, -180379.44947236174, -177735.84160039923, -177360.13112784998, -180643.96001624587, -182020.8721781817, -184415.90630005675, 187500.0, 0.034, -0.008, 0.882, 192.0, 0.0, 0.0, 0.0, 0.0, 0.0, 0.0, 0.0, 0.0, 0.0, 1.6896026936521018E9, 0.0, 2023-07-17 16:04:53.652
20.0, -175678.67644771058, -180356.58363778397, -177751.73369070695, -177351.8162789126, -180612.95814668635, -182023.8226084498, -184420.48840767008, 187500.0, 0.034, -0.008, 0.882, 192.0, 0.0, 0.0, 0.0, 0.0, 0.0, 0.0, 0.0, 0.0, 0.0, 1.6896026936521225E9, 0.0, 2023-07-17 16:04:53.652
21.0, -175660.97386610197, -180350.5710185255, -177770.12917639368, -177369.94354366584, -180631.1748184174, -182029.1646753746, -184461.57091397894, 187500.0, 0.034, -0.008, 0.882, 192.0, 0.0, 0.0, 0.0, 0.0, 0.0, 0.0, 0.0, 0.0, 0.0, 1.6896026936521437E9, 0.0, 2023-07-17 16:04:53.652
22.0, -175708.4266195806, -180347.73234697967, -177783.7637405114, -177336.39357523844, -180629.85606549456, -182032.0256986649, -184478.6923502317, 187500.0, 0.034, -0.008, 0.882, 192.0, 0.0, 0.0, 0.0, 0.0, 0.0, 0.0, 0.0, 0.0, 0.0, 1.689602693652176E9, 0.0, 2023-07-17 16:04:53.652
23.0, -175674.29550579734, -180360.070509919, -177779.3157433648, -177337.46645897228, -180658.8015745642, -182022.83913169376, -184475.96543740816, 187500.0, 0.034, -0.008, 0.882, 192.0, 0.0, 0.0, 0.0, 0.0, 0.0, 0.0, 0.0, 0.0, 0.0, 1.6896026936521971E9, 0.0, 2023-07-17 16:04:53.652
24.0, -175689.8746716827, -180328.48749500365, -177752.13602210715, -177308.83387432504, -180635.376946375, -182021.34156481523, -184505.82736800043, 187500.0, 0.034, -0.008, 0.882, 192.0, 0.0, 0.0, 0.0, 0.0, 0.0, 0.0, 0.0, 0.0, 0.0, 1.6896026936522186E9, 0.0, 2023-07-17 16:04:53.652
25.0, -175646.64639790612, -180343.35140506644, -177754.68412097506, -177345.13310732046, -180659.06979549763, -182036.1160679002, -184517.4055716283, 187500.0, 0.034, -0.008, 0.882, 192.0, 0.0, 0.0, 0.0, 0.0, 0.0, 0.0, 0.0, 0.0, 0.0, 1.6896026936522405E9, 0.0, 2023-07-17 16:04:53.652
26.0, -175665.93595337105, -180322.94426237873, -177745.36344353718, -177294.5064061292, -180649.50324887078, -182044.65443428213, -184564.0089588176, 187500.0, 0.034, -0.008, 0.882, 192.0, 0.0, 0.0, 0.0, 0.0, 0.0, 0.0, 0.0, 0.0, 0.0, 1.6896026936522615E9, 0.0, 2023-07-17 16:04:53.652
27.0, -175631.53661865433, -180334.29894856203, -177755.6005424977, -177304.63174636743, -180667.18347873492, -182064.88276301417, -184568.6581216643, 187500.0, 0.034, -0.004, 0.9440000000000001, 192.0, 1.0, 16.0, 255.0, 224.0, 29.0, 128.0, 0.0, 0.0, 0.0, 1.6896026936522827E9, 0.0, 2023-07-17 16:04:53.652
28.0, -175645.9087903391, -180324.55358797952, -177748.3585772942, -177268.5336790721, -180676.88413582853, -182080.48428064398, -184577.59881944643, 187500.0, 0.034, -0.004, 0.9440000000000001, 192.0, 0.0, 0.0, 0.0, 0.0, 0.0, 0.0, 0.0, 0.0, 0.0, 1.6896026936523042E9, 0.0, 2023-07-17 16:04:53.652
29.0, -175627.8485808192, -180327.90634964782, -177759.08741463273, -177271.05942619557, -180685.04252255472, -182096.1752052516, -184557.6610633923, 187500.0, 0.034, -0.004, 0.9440000000000001, 192.0, 0.0, 0.0, 0.0, 0.0, 0.0, 0.0, 0.0, 0.0, 0.0, 1.689602693652325E9, 0.0, 2023-07-17 16:04:53.652
30.0, -175639.27032223588, -180273.43514841024, -177744.69289120354, -177230.06632686453, -180676.68297012843, -182103.21600475503, -184609.11477912843, 187500.0, 0.034, -0.004, 0.9440000000000001, 192.0, 0.0, 0.0, 0.0, 0.0, 0.0, 0.0, 0.0, 0.0, 0.0, 1.689602693652346E9, 0.0, 2023-07-17 16:04:53.652
31.0, -175557.15001310708, -180279.6042298799, -177765.9046966916, -177271.97584771822, -180726.1697323525, -182125.52304572143, -184621.18472113428, 187500.0, 0.034, -0.004, 0.9440000000000001, 192.0, 0.0, 0.0, 0.0, 0.0, 0.0, 0.0, 0.0, 0.0, 0.0, 1.6896026936523676E9, 0.0, 2023-07-17 16:04:53.652
32.0, -175599.73008629444, -180257.99009299162, -177757.23221984296, -177224.2772250506, -180702.92391811896, -182129.76987716794, -184656.5451808626, 187500.0, 0.034, -0.004, 0.9440000000000001, 192.0, 0.0, 0.0, 0.0, 0.0, 0.0, 0.0, 0.0, 0.0, 0.0, 1.6896026936523893E9, 0.0, 2023-07-17 16:04:53.652
33.0, -175516.93922483196, -180269.05420649698, -177750.72786220646, -177242.9856351597, -180737.34560458013, -182137.45887726056, -184663.47422164373, 187500.0, 0.034, -0.004, 0.9440000000000001, 192.0, 0.0, 0.0, 0.0, 0.0, 0.0, 0.0, 0.0, 0.0, 0.0, 1.6896026936524105E9, 0.0, 2023-07-17 16:04:53.652
34.0, -175538.68747218698, -180266.39434890682, -177761.456699545, -177226.7359169407, -180697.91712736097, -182132.04975510237, -184677.51111716166, 187500.0, 0.034, -0.004, 0.9440000000000001, 192.0, 0.0, 0.0, 0.0, 0.0, 0.0, 0.0, 0.0, 0.0, 0.0, 1.6896026936524332E9, 0.0, 2023-07-17 16:04:53.652
35.0, -175547.3823007801, -180279.26895371306, -177775.53829855184, -177229.86516116443, -180682.58383066463, -182124.60662419876, -184667.51988739014, 187500.0, 0.034, -0.004, 0.9440000000000001, 192.0, 0.0, 0.0, 0.0, 0.0, 0.0, 0.0, 0.0, 0.0, 0.0, 1.6896026936524549E9, 0.0, 2023-07-17 16:04:53.652
36.0, -175566.15776612257, -180284.0969305154, -177766.3070280918, -177248.05948115105, -180705.18144430895, -182109.25097575795, -184672.21375372575, 187500.0, 0.034, -0.004, 0.9440000000000001, 192.0, 0.0, 0.0, 0.0, 0.0, 0.0, 0.0, 0.0, 0.0, 0.0, 1.689602693652476E9, 0.0, 2023-07-17 16:04:53.652
37.0, -175573.1538621371, -180265.03089249504, -177757.52279252087, -177247.92537068433, -180681.53329867523, -182071.4765276285, -184652.7900877941, 187500.0, 0.036000000000000004, -0.006, 0.974, 192.0, 1.0, 32.0, 255.0, 208.0, 30.0, 112.0, 0.0, 0.0, 0.0, 1.6896026936524975E9, 0.0, 2023-07-17 16:04:53.652
38.0, -175551.0256351263, -180274.41862516626, -177760.22735359997, -177275.95445823128, -180692.32919124715, -182043.4250883371, -184647.8950557584, 187500.0, 0.036000000000000004, -0.006, 0.974, 192.0, 0.0, 0.0, 0.0, 0.0, 0.0, 0.0, 0.0, 0.0, 0.0, 1.6896026936525192E9, 0.0, 2023-07-17 16:04:53.652
39.0, -175575.7913679828, -180286.08623577195, -177762.39547281212, -177290.21487119378, -180709.47297924437, -182050.95762621853, -184665.95526527826, 187500.0, 0.036000000000000004, -0.006, 0.974, 192.0, 0.0, 0.0, 0.0, 0.0, 0.0, 0.0, 0.0, 0.0, 0.0, 1.6896026936525426E9, 0.0, 2023-07-17 16:04:53.652
40.0, -175572.5503650368, -180289.41664569578, -177765.18944086903, -177312.85718832698, -180715.88792990302, -182037.2783586119, -184660.6355500979, 187500.0, 0.036000000000000004, -0.006, 0.974, 192.0, 0.0, 0.0, 0.0, 0.0, 0.0, 0.0, 0.0, 0.0, 0.0, 1.6896026936525643E9, 0.0, 2023-07-17 16:04:53.652
41.0, -175576.48427206092, -180301.5089394461, -177774.28660086234, -177303.4471039113, -180704.77911290876, -182042.35220460323, -184684.6413236429, 187500.0, 0.036000000000000004, -0.006, 0.974, 192.0, 0.0, 0.0, 0.0, 0.0, 0.0, 0.0, 0.0, 0.0, 0.0, 1.689602693652586E9, 0.0, 2023-07-17 16:04:53.652
42.0, -175603.93221425204, -180293.64112539781, -177778.04169393083, -177299.4461416538, -180692.44094996943, -182033.74678298793, -184681.22150674125, 187500.0, 0.036000000000000004, -0.006, 0.974, 192.0, 0.0, 0.0, 0.0, 0.0, 0.0, 0.0, 0.0, 0.0, 0.0, 1.6896026936526077E9, 0.0, 2023-07-17 16:04:53.652
43.0, -175612.6493945896, -180282.5993636369, -177759.82502219977, -177304.54233938962, -180693.31266800317, -182010.2550995654, -184667.00579726766, 187500.0, 0.036000000000000004, -0.006, 0.974, 192.0, 0.0, 0.0, 0.0, 0.0, 0.0, 0.0, 0.0, 0.0, 0.0, 1.689602693652633E9, 0.0, 2023-07-17 16:04:53.652
44.0, -175622.61827261667, -180263.89095352782, -177736.31098703278, -177304.34117368952, -180689.71403714587, -181990.09382606673, -184659.5403146196, 187500.0, 0.036000000000000004, -0.006, 0.974, 192.0, 0.0, 0.0, 0.0, 0.0, 0.0, 0.0, 0.0, 0.0, 0.0, 1.689602693652655E9, 0.0, 2023-07-17 16:04:53.652
45.0, -175648.18866827353, -180246.41188936378, -177747.62096972717, -177302.01659226615, -180675.65478988347, -181985.60112543122, -184647.9397592473, 187500.0, 0.036000000000000004, -0.006, 0.974, 192.0, 0.0, 0.0, 0.0, 0.0, 0.0, 0.0, 0.0, 0.0, 0.0, 1.6896026936526766E9, 0.0, 2023-07-17 16:04:53.652
46.0, -175671.27802029587, -180262.05811048247, -177788.47995859146, -177313.01365053817, -180669.86568806955, -182007.17055883058, -184634.95339571877, 187500.0, 0.034, -0.002, 0.992, 192.0, 1.0, 16.0, 255.0, 240.0, 31.0, 0.0, 0.0, 0.0, 0.0, 1.689602693652698E9, 0.0, 2023-07-17 16:04:53.652
47.0, -175674.49667149744, -180292.72470387517, -177797.10773195123, -177312.16428424887, -180659.7403478313, -182018.97227990298, -184613.83099720848, 187500.0, 0.034, -0.002, 0.992, 192.0, 0.0, 0.0, 0.0, 0.0, 0.0, 0.0, 0.0, 0.0, 0.0, 1.6896026936527195E9, 0.0, 2023-07-17 16:04:53.652
48.0, -175682.4091890346, -180307.18628253773, -177798.04650521834, -177285.18572869131, -180636.89686499798, -182021.8109514488, -184590.74164518615, 187500.0, 0.034, -0.002, 0.992, 192.0, 0.0, 0.0, 0.0, 0.0, 0.0, 0.0, 0.0, 0.0, 0.0, 1.6896026936527412E9, 0.0, 2023-07-17 16:04:53.652
49.0, -175679.92814540007, -180306.9627650932, -177796.70540055103, -177281.63180132292, -180623.97755670283, -182014.23371007846, -184563.18194427277, 187500.0, 0.034, -0.002, 0.992, 192.0, 0.0, 0.0, 0.0, 0.0, 0.0, 0.0, 0.0, 0.0, 0.0, 1.6896026936527607E9, 0.0, 2023-07-17 16:04:53.652
50.0, -175687.6618489816, -180301.1513115348, -177784.1660719116, -177293.41117065088, -180632.5382748292, -181997.31343952578, -184561.55026692752, 187500.0, 0.034, -0.002, 0.992, 192.0, 0.0, 0.0, 0.0, 0.0, 0.0, 0.0, 0.0, 0.0, 0.0, 1.6896026936527822E9, 0.0, 2023-07-17 16:04:53.652
51.0, -175716.0262126954, -180320.0161838551, -177799.72288605248, -177296.74158057472, -180624.29048112518, -182008.48931175345, -184554.48711567966, 187500.0, 0.034, -0.002, 0.992, 192.0, 0.0, 0.0, 0.0, 0.0, 0.0, 0.0, 0.0, 0.0, 0.0, 1.6896026936528049E9, 0.0, 2023-07-17 16:04:53.652
52.0, -175713.6792795276, -180333.67309971727, -177805.15435995514, -177293.63468809542, -180623.01643169124, -182017.1170851132, -184552.31899646748, 187500.0, 0.034, -0.002, 0.992, 192.0, 0.0, 0.0, 0.0, 0.0, 0.0, 0.0, 0.0, 0.0, 0.0, 1.6896026936528256E9, 0.0, 2023-07-17 16:04:53.652
53.0, -175710.8853114707, -180315.79170415303, -177767.9610571815, -177280.0448274666, -180608.42074256192, -181994.31830576877, -184537.92447303826, 187500.0, 0.034, -0.002, 0.992, 192.0, 0.0, 0.0, 0.0, 0.0, 0.0, 0.0, 0.0, 0.0, 0.0, 1.689602693652847E9, 0.0, 2023-07-17 16:04:53.652
54.0, -175718.95429121904, -180334.88009391786, -177764.54124027982, -177313.34892670502, -180588.59474523008, -181993.89362262413, -184520.89244376332, 187500.0, 0.034, -0.002, 0.992, 192.0, 0.0, 0.0, 0.0, 0.0, 0.0, 0.0, 0.0, 0.0, 0.0, 1.6896026936528685E9, 0.0, 2023-07-17 16:04:53.652
55.0, -175739.89787577366, -180360.45048957475, -177784.05431318932, -177342.4508979858, -180573.864945634, -182011.1044658547, -184506.2520511451, 187500.0, 0.034, -0.002, 0.992, 192.0, 0.0, 0.0, 0.0, 0.0, 0.0, 0.0, 0.0, 0.0, 0.0, 1.68960269365289E9, 0.0, 2023-07-17 16:04:53.652
56.0, -175732.34298614776, -180379.44947236174, -177795.94544123954, -177373.74334022324, -180563.20316352884, -182014.4125240341, -184480.8828211883, 187500.0, 0.034, -0.002, 0.996, 192.0, 1.0, 16.0, 255.0, 240.0, 31.0, 32.0, 0.0, 0.0, 0.0, 1.6896026936529112E9, 0.0, 2023-07-17 16:04:53.652
57.0, -175737.59564609476, -180401.64475460586, -177799.96875524148, -177403.38175337098, -180556.14001228096, -182019.88870142566, -184468.03056812653, 187500.0, 0.034, -0.002, 0.996, 192.0, 0.0, 0.0, 0.0, 0.0, 0.0, 0.0, 0.0, 0.0, 0.0, 1.6896026936529305E9, 0.0, 2023-07-17 16:04:53.652
58.0, -175753.04070151338, -180392.6817050793, -177795.05137146133, -177396.38565735647, -180544.85238133103, -182034.19381787704, -184464.56604773595, 187500.0, 0.034, -0.002, 0.996, 192.0, 0.0, 0.0, 0.0, 0.0, 0.0, 0.0, 0.0, 0.0, 0.0, 1.6896026936529503E9, 0.0, 2023-07-17 16:04:53.652
59.0, -175715.8250469953, -180395.81094930304, -177780.8133102433, -177408.5673580846, -180555.80473611414, -182053.32691113077, -184457.52524823253, 187500.0, 0.034, -0.002, 0.996, 192.0, 0.0, 0.0, 0.0, 0.0, 0.0, 0.0, 0.0, 0.0, 0.0, 1.6896026936529715E9, 0.0, 2023-07-17 16:04:53.652
60.0, -175715.5344743174, -180400.66127784984, -177777.3711415972, -177382.10289264953, -180540.49379116224, -182049.1694866621, -184486.42605381325, 187500.0, 0.034, -0.002, 0.996, 192.0, 0.0, 0.0, 0.0, 0.0, 0.0, 0.0, 0.0, 0.0, 0.0, 1.689602693652992E9, 0.0, 2023-07-17 16:04:53.652
61.0, -175706.30320385733, -180394.46984463572, -177784.94838296753, -177369.63061924346, -180524.4675903878, -182043.715661015, -184473.12676586234, 187500.0, 0.034, -0.002, 0.996, 192.0, 0.0, 0.0, 0.0, 0.0, 0.0, 0.0, 0.0, 0.0, 0.0, 1.6896026936530116E9, 0.0, 2023-07-17 16:04:53.653
62.0, -175707.0184596799, -180381.6846468073, -177797.86769126268, -177372.13401462245, -180539.33150045056, -182057.10435594374, -184470.01987338305, 187500.0, 0.034, -0.002, 0.996, 192.0, 0.0, 0.0, 0.0, 0.0, 0.0, 0.0, 0.0, 0.0, 0.0, 1.6896026936530316E9, 0.0, 2023-07-17 16:04:53.653
63.0, -175738.71323331754, -180360.65165527485, -177804.34969715474, -177357.20304932632, -180528.110924734, -182071.36476890623, -184463.44846051317, 187500.0, 0.034, -0.002, 0.996, 192.0, 0.0, 0.0, 0.0, 0.0, 0.0, 0.0, 0.0, 0.0, 0.0, 1.6896026936530533E9, 0.0, 2023-07-17 16:04:53.653
64.0, -175691.55105251685, -180358.7741087406, -177787.65294404663, -177368.78125295416, -180542.2148754853, -182088.79912958137, -184457.3911377658, 187500.0, 0.034, -0.002, 0.996, 192.0, 0.0, 0.0, 0.0, 0.0, 0.0, 0.0, 0.0, 0.0, 0.0, 1.6896026936530783E9, 0.0, 2023-07-17 16:04:53.653
65.0, -175688.2653460819, -180358.12590815139, -177782.221470144, -177344.52961022017, -180518.8125990406, -182081.35599867775, -184486.91779219126, 187500.0, 0.034, -0.002, 0.996, 192.0, 0.0, 0.0, 0.0, 0.0, 0.0, 0.0, 0.0, 0.0, 0.0, 1.6896026936531E9, 0.0, 2023-07-17 16:04:53.653
66.0, -175707.75606724693, -180379.60593457293, -177807.12131346719, -177358.94648539383, -180527.23920670024, -182091.14606274918, -184493.46685331667, 187500.0, 0.04, -0.01, 1.002, 192.0, 1.0, 64.0, 255.0, 176.0, 31.0, 80.0, 0.0, 0.0, 0.0, 1.6896026936531217E9, 0.0, 2023-07-17 16:04:53.653
67.0, -175708.7842474919, -180381.55053634054, -177798.09120870725, -177379.46538680381, -180555.58121866957, -182115.0400775719, -184497.42311208526, 187500.0, 0.04, -0.01, 1.002, 192.0, 0.0, 0.0, 0.0, 0.0, 0.0, 0.0, 0.0, 0.0, 0.0, 1.689602693653143E9, 0.0, 2023-07-17 16:04:53.653
68.0, -175724.58693082177, -180368.65357978983, -177800.19227268605, -177350.49752598972, -180540.94082605134, -182130.37337426824, -184497.803091741, 187500.0, 0.04, -0.01, 1.002, 192.0, 0.0, 0.0, 0.0, 0.0, 0.0, 0.0, 0.0, 0.0, 0.0, 1.6896026936531646E9, 0.0, 2023-07-17 16:04:53.653
69.0, -175629.2567407199, -180382.24344041868, -177779.65101953162, -177355.75018593672, -180605.00092566025, -182149.6405779887, -184504.57567031094, 187500.0, 0.04, -0.01, 1.002, 192.0, 0.0, 0.0, 0.0, 0.0, 0.0, 0.0, 0.0, 0.0, 0.0, 1.689602693653185E9, 0.0, 2023-07-17 16:04:53.653
70.0, -175651.42967121955, -180363.35621635392, -177786.35654286822, -177331.67735715836, -180579.9669718703, -182142.95740639657, -184484.41439681227, 187500.0, 0.04, -0.01, 1.002, 192.0, 0.0, 0.0, 0.0, 0.0, 0.0, 0.0, 0.0, 0.0, 0.0, 1.689602693653206E9, 0.0, 2023-07-17 16:04:53.653
71.0, -175624.96520578448, -180364.7643762546, -177768.92218219308, -177362.18748833984, -180607.05728615014, -182163.2974938509, -184484.6379142568, 187500.0, 0.04, -0.01, 1.002, 192.0, 0.0, 0.0, 0.0, 0.0, 0.0, 0.0, 0.0, 0.0, 0.0, 1.689602693653228E9, 0.0, 2023-07-17 16:04:53.653
72.0, -175652.4131479756, -180363.60208554295, -177781.7744352549, -177342.6520636859, -180576.9271346244, -182149.46176403307, -184506.4979203341, 187500.0, 0.04, -0.01, 1.002, 192.0, 0.0, 0.0, 0.0, 0.0, 0.0, 0.0, 0.0, 0.0, 0.0, 1.6896026936532497E9, 0.0, 2023-07-17 16:04:53.653
73.0, -175654.17893578755, -180369.6817600348, -177795.74427553944, -177342.29443577462, -180570.623942688, -182142.71153720756, -184501.8487574874, 187500.0, 0.04, -0.01, 1.002, 192.0, 0.0, 0.0, 0.0, 0.0, 0.0, 0.0, 0.0, 0.0, 0.0, 1.6896026936532707E9, 0.0, 2023-07-17 16:04:53.653
74.0, -175636.1634297566, -180353.40969007133, -177779.1145776647, -177350.34106377853, -180585.15257658393, -182156.72608098103, -184500.93233596472, 187500.0, 0.04, -0.01, 1.002, 192.0, 0.0, 0.0, 0.0, 0.0, 0.0, 0.0, 0.0, 0.0, 0.0, 1.6896026936532924E9, 0.0, 2023-07-17 16:04:53.653
75.0, -175650.714415397, -180339.84218118695, -177778.77930149785, -177352.1515550794, -180567.38293974198, -182160.57058102736, -184483.9450101787, 187500.0, 0.04, -0.01, 1.002, 192.0, 0.0, 0.0, 0.0, 0.0, 0.0, 0.0, 0.0, 0.0, 0.0, 1.689602693653314E9, 0.0, 2023-07-17 16:04:53.653
76.0, -175614.05755449028, -180328.062811859, -177756.09228087572, -177368.2224593428, -180588.6841522079, -182169.01954043144, -184476.01014089707, 187500.0, 0.038, -0.012, 1.0, 192.0, 1.0, 48.0, 255.0, 160.0, 31.0, 64.0, 0.0, 0.0, 0.0, 1.6896026936533353E9, 0.0, 2023-07-17 16:04:53.653
77.0, -175638.4656594355, -180323.25718680111, -177765.0106269134, -177349.73756667823, -180557.48111694827, -182166.31497935238, -184486.9401439357, 187500.0, 0.038, -0.012, 1.0, 192.0, 0.0, 0.0, 0.0, 0.0, 0.0, 0.0, 0.0, 0.0, 0.0, 1.6896026936533563E9, 0.0, 2023-07-17 16:04:53.653
78.0, -175610.12364746616, -180343.26199808862, -177782.89202247764, -177355.54902023662, -180562.48790770627, -182164.1021566513, -184496.48433881812, 187500.0, 0.038, -0.012, 1.0, 192.0, 0.0, 0.0, 0.0, 0.0, 0.0, 0.0, 0.0, 0.0, 0.0, 1.6896026936533785E9, 0.0, 2023-07-17 16:04:53.653
79.0, -175639.717357125, -180361.9704081977, -177798.33707789626, -177344.0602235866, -180555.84943960304, -182168.0584154199, -184486.51546079107, 187500.0, 0.038, -0.012, 1.0, 192.0, 0.0, 0.0, 0.0, 0.0, 0.0, 0.0, 0.0, 0.0, 0.0, 1.6896026936534002E9, 0.0, 2023-07-17 16:04:53.653
80.0, -175663.23139229196, -180382.66812356332, -177825.33798519828, -177345.3119212761, -180551.28968373415, -182170.67356952114, -184469.19285883819, 187500.0, 0.038, -0.012, 1.0, 192.0, 0.0, 0.0, 0.0, 0.0, 0.0, 0.0, 0.0, 0.0, 0.0, 1.6896026936534219E9, 0.0, 2023-07-17 16:04:53.653
81.0, -175665.7124359265, -180392.4358358903, -177821.04645026286, -177339.67928167337, -180550.10504127803, -182161.50935429448, -184448.89747487276, 187500.0, 0.038, -0.012, 1.0, 192.0, 0.0, 0.0, 0.0, 0.0, 0.0, 0.0, 0.0, 0.0, 0.0, 1.689602693653443E9, 0.0, 2023-07-17 16:04:53.653
82.0, -175684.0185146354, -180367.15601291132, -177811.72577282498, -177331.2973775026, -180534.14589573693, -182165.57737178533, -184439.0850590569, 187500.0, 0.038, -0.012, 1.0, 192.0, 0.0, 0.0, 0.0, 0.0, 0.0, 0.0, 0.0, 0.0, 0.0, 1.6896026936534631E9, 0.0, 2023-07-17 16:04:53.653
83.0, -175696.0214014079, -180351.64390225935, -177798.04650521834, -177339.88044737346, -180535.28583470415, -182183.3023051384, -184437.00634682254, 187500.0, 0.038, -0.012, 1.0, 192.0, 0.0, 0.0, 0.0, 0.0, 0.0, 0.0, 0.0, 0.0, 0.0, 1.6896026936534832E9, 0.0, 2023-07-17 16:04:53.653
84.0, -175692.8251019508, -180335.57299799597, -177771.71615025, -177340.9533311073, -180541.61137838502, -182197.92034601216, -184434.25708225454, 187500.0, 0.038, -0.012, 1.0, 192.0, 0.0, 0.0, 0.0, 0.0, 0.0, 0.0, 0.0, 0.0, 0.0, 1.6896026936535044E9, 0.0, 2023-07-17 16:04:53.653
85.0, -175714.95332896154, -180321.60315771142, -177758.5956762547, -177337.13118280546, -180542.34898595203, -182180.01659870346, -184438.4815619566, 187500.0, 0.038, -0.012, 1.0, 192.0, 0.0, 0.0, 0.0, 0.0, 0.0, 0.0, 0.0, 0.0, 0.0, 1.6896026936535244E9, 0.0, 2023-07-17 16:04:53.653
86.0, -175755.23117247, -180339.81982944248, -177773.14666189512, -177354.0067498692, -180552.72019537928, -182174.98745620102, -184442.05784106944, 187500.0, 0.04, -0.01, 1.006, 192.0, 1.0, 64.0, 255.0, 176.0, 31.0, 112.0, 0.0, 0.0, 0.0, 1.6896026936535509E9, 0.0, 2023-07-17 16:04:53.653
87.0, -175757.71221610456, -180354.34846333845, -177771.62674327218, -177347.59179921052, -180550.32855872257, -182171.83586023282, -184418.02971578, 187500.0, 0.04, -0.01, 1.006, 192.0, 0.0, 0.0, 0.0, 0.0, 0.0, 0.0, 0.0, 0.0, 0.0, 1.6896026936535723E9, 0.0, 2023-07-17 16:04:53.653
88.0, -175768.3963499542, -180343.73138472217, -177777.39349334163, -177342.13797356345, -180543.75714585272, -182148.65710123267, -184421.04720128147, 187500.0, 0.04, -0.01, 1.006, 192.0, 0.0, 0.0, 0.0, 0.0, 0.0, 0.0, 0.0, 0.0, 0.0, 1.6896026936554973E9, 0.0, 2023-07-17 16:04:53.655
89.0, -175760.8414603283, -180365.54668731056, -177801.60043258674, -177387.80258748564, -180564.18664028487, -182147.87479017675, -184441.297881758, 187500.0, 0.04, -0.01, 1.006, 192.0, 0.0, 0.0, 0.0, 0.0, 0.0, 0.0, 0.0, 0.0, 0.0, 1.689602693655596E9, 0.0, 2023-07-17 16:04:53.655
90.0, -175725.43629711107, -180355.80132672805, -177775.7618159964, -177355.4149097699, -180535.35288993752, -182116.69410666157, -184454.77598366453, 187500.0, 0.04, -0.01, 1.006, 192.0, 0.0, 0.0, 0.0, 0.0, 0.0, 0.0, 0.0, 0.0, 0.0, 1.6896026936556208E9, 0.0, 2023-07-17 16:04:53.655
91.0, -175721.10005868674, -180348.3134923355, -177770.73267349394, -177346.29539803212, -180531.19546546883, -182095.99639129598, -184455.06655634244, 187500.0, 0.04, -0.01, 1.006, 192.0, 0.0, 0.0, 0.0, 0.0, 0.0, 0.0, 0.0, 0.0, 0.0, 1.689602693655655E9, 0.0, 2023-07-17 16:04:53.655
92.0, -175712.472285327, -180362.39509134236, -177778.04169393083, -177370.18941285484, -180558.44224195986, -182088.3744464367, -184465.10248960287, 187500.0, 0.04, -0.01, 1.006, 192.0, 0.0, 0.0, 0.0, 0.0, 0.0, 0.0, 0.0, 0.0, 0.0, 1.68960269365568E9, 0.0, 2023-07-17 16:04:53.655
93.0, -175725.74922153345, -180378.51069909462, -177786.15537716812, -177356.53249699267, -180547.40048019894, -182094.45412092857, -184452.29494003, 187500.0, 0.04, -0.01, 1.006, 192.0, 0.0, 0.0, 0.0, 0.0, 0.0, 0.0, 0.0, 0.0, 0.0, 1.6896026936557E9, 0.0, 2023-07-17 16:04:53.655
94.0, -175731.78419253638, -180380.2317834177, -177796.14660693964, -177333.44314497034, -180537.09632600503, -182095.66111512913, -184452.65256794126, 187500.0, 0.04, -0.01, 1.006, 192.0, 0.0, 0.0, 0.0, 0.0, 0.0, 0.0, 0.0, 0.0, 0.0, 1.6896026936557207E9, 0.0, 2023-07-17 16:04:53.655
95.0, -175698.54714853136, -180400.95185052775, -177795.43135111706, -177335.56656069358, -180588.2818208077, -182089.11205400372, -184476.97126590865, 187500.0, 0.04, -0.01, 1.006, 192.0, 0.0, 0.0, 0.0, 0.0, 0.0, 0.0, 0.0, 0.0, 0.0, 1.6896026936557412E9, 0.0, 2023-07-17 16:04:53.655
96.0, -175728.61024482374, -180401.04125750557, -177801.75689479793, -177340.39453749591, -180561.63854141696, -182077.28798118688, -184491.00816142658, 187500.0, 0.032, -0.004, 1.006, 192.0, 1.0, 0.0, 255.0, 224.0, 31.0, 112.0, 0.0, 0.0, 0.0, 1.6896026936557617E9, 0.0, 2023-07-17 16:04:53.655
97.0, -175707.48784631348, -180403.65641160685, -177797.33124939576, -177354.74435743623, -180533.29652944763, -182062.15585019064, -184478.46883278716, 187500.0, 0.032, -0.004, 1.006, 192.0, 0.0, 0.0, 0.0, 0.0, 0.0, 0.0, 0.0, 0.0, 0.0, 1.6896026936557827E9, 0.0, 2023-07-17 16:04:53.655
98.0, -175706.6161282797, -180420.9343100708, -177800.54990059734, -177385.65682001793, -180526.07691598855, -182069.97896074998, -184462.15205933477, 187500.0, 0.032, -0.004, 1.006, 192.0, 0.0, 0.0, 0.0, 0.0, 0.0, 0.0, 0.0, 0.0, 0.0, 1.689602693655804E9, 0.0, 2023-07-17 16:04:53.655
99.0, -175714.50629407243, -180401.44358890576, -177778.80165324232, -177367.73072096476, -180509.3131076471, -182073.35407416275, -184449.90330337326, 187500.0, 0.032, -0.004, 1.006, 192.0, 0.0, 0.0, 0.0, 0.0, 0.0, 0.0, 0.0, 0.0, 0.0, 1.6896026936558254E9, 0.0, 2023-07-17 16:04:53.655
100.0, -175740.21080019604, -180415.72635361273, -177771.24676361642, -177394.77633175568, -180526.74746832222, -182096.10815001823, -184449.97035860663, 187500.0, 0.032, -0.004, 1.006, 192.0, 0.0, 0.0, 0.0, 0.0, 0.0, 0.0, 0.0, 0.0, 0.0, 1.6896026936558468E9, 0.0, 2023-07-17 16:04:53.655
101.0, -175735.91926526063, -180395.6321353474, -177746.01164412638, -177387.02027642968, -180535.5093521487, -182066.82736478178, -184450.32798651792, 187500.0, 0.032, -0.004, 1.006, 192.0, 0.0, 0.0, 0.0, 0.0, 0.0, 0.0, 0.0, 0.0, 0.0, 1.6896026936558683E9, 0.0, 2023-07-17 16:04:53.655
102.0, -175752.99599802447, -180392.05585623454, -177765.48001354697, -177400.67719229189, -180535.4199451709, -182069.8672020277, -184477.01596939756, 187500.0, 0.032, -0.004, 1.006, 192.0, 0.0, 0.0, 0.0, 0.0, 0.0, 0.0, 0.0, 0.0, 0.0, 1.6896026936558888E9, 0.0, 2023-07-17 16:04:53.655
103.0, -175693.29448858436, -180389.46305387773, -177744.2458563144, -177419.49736112327, -180569.93103860988, -182076.7738910644, -184519.77485654055, 187500.0, 0.032, -0.004, 1.006, 192.0, 0.0, 0.0, 0.0, 0.0, 0.0, 0.0, 0.0, 0.0, 0.0, 1.68960269365591E9, 0.0, 2023-07-17 16:04:53.655
104.0, -175703.75510498942, -180383.80806253053, -177750.61610348418, -177390.01541018672, -180538.52683765016, -182069.5766293498, -184494.62914402832, 187500.0, 0.032, -0.004, 1.006, 192.0, 0.0, 0.0, 0.0, 0.0, 0.0, 0.0, 0.0, 0.0, 0.0, 1.6896026936559298E9, 0.0, 2023-07-17 16:04:53.655
105.0, -175699.53062528739, -180415.4357809348, -177780.0086474429, -177404.09700919356, -180552.60843665703, -182081.95949577805, -184479.87699268784, 187500.0, 0.032, -0.004, 1.006, 192.0, 0.0, 0.0, 0.0, 0.0, 0.0, 0.0, 0.0, 0.0, 0.0, 1.689602693655952E9, 0.0, 2023-07-17 16:04:53.655
106.0, -175722.3294046318, -180413.9829175452, -177782.80261549982, -177373.13984312295, -180527.4180206559, -182077.7797195649, -184453.70309993066, 187500.0, 0.034, -0.002, 1.006, 192.0, 1.0, 16.0, 255.0, 240.0, 31.0, 112.0, 0.0, 0.0, 0.0, 1.6896026936559722E9, 0.0, 2023-07-17 16:04:53.655
107.0, -175736.38865189417, -180413.82645533403, -177799.34290639675, -177367.95423840932, -180525.29460493263, -182082.36182717822, -184449.61273069534, 187500.0, 0.034, -0.002, 1.006, 192.0, 0.0, 0.0, 0.0, 0.0, 0.0, 0.0, 0.0, 0.0, 0.0, 1.6896026936559985E9, 0.0, 2023-07-17 16:04:53.655
108.0, -175716.89793072914, -180425.9858043177, -177793.84437726074, -177410.3778493855, -180568.612285687, -182075.3657311637, -184462.26381805705, 187500.0, 0.034, -0.002, 1.006, 192.0, 0.0, 0.0, 0.0, 0.0, 0.0, 0.0, 0.0, 0.0, 0.0, 1.6896026936560197E9, 0.0, 2023-07-17 16:04:53.656
109.0, -175732.36533789223, -180420.6884408818, -177807.27777567838, -177395.15631141144, -180544.91943656438, -182066.49208861496, -184449.25510278405, 187500.0, 0.034, -0.002, 1.006, 192.0, 0.0, 0.0, 0.0, 0.0, 0.0, 0.0, 0.0, 0.0, 0.0, 1.689602693656041E9, 0.0, 2023-07-17 16:04:53.656
110.0, -175673.75906393043, -180436.82640037852, -177822.02992701888, -177403.53821558217, -180549.12156452198, -182065.06157696983, -184432.55834967594, 187500.0, 0.034, -0.002, 1.006, 192.0, 0.0, 0.0, 0.0, 0.0, 0.0, 0.0, 0.0, 0.0, 0.0, 1.689602693656062E9, 0.0, 2023-07-17 16:04:53.656
111.0, -175668.97579061697, -180429.51737994165, -177811.07757223578, -177367.99894189823, -180523.9087967764, -182052.25402739694, -184458.15109707727, 187500.0, 0.034, -0.002, 1.006, 192.0, 0.0, 0.0, 0.0, 0.0, 0.0, 0.0, 0.0, 0.0, 0.0, 1.6896026936560817E9, 0.0, 2023-07-17 16:04:53.656
112.0, -175667.21000280502, -180427.90805434086, -177821.04645026286, -177356.44309001483, -180511.1012472035, -182042.978053448, -184467.42707102624, 187500.0, 0.034, -0.002, 1.006, 192.0, 0.0, 0.0, 0.0, 0.0, 0.0, 0.0, 0.0, 0.0, 0.0, 1.6896026936561007E9, 0.0, 2023-07-17 16:04:53.656
113.0, -175666.07006383777, -180445.92356037183, -177840.6712818946, -177360.1758313389, -180522.94767176482, -182059.16071643363, -184504.3074493775, 187500.0, 0.034, -0.002, 1.006, 192.0, 0.0, 0.0, 0.0, 0.0, 0.0, 0.0, 0.0, 0.0, 0.0, 1.6896026936561208E9, 0.0, 2023-07-17 16:04:53.656
114.0, -175702.19048287757, -180447.2423132947, -177851.69069191106, -177343.7472991642, -180500.41711335388, -182067.96730374903, -184529.87784503435, 187500.0, 0.034, -0.002, 1.006, 192.0, 0.0, 0.0, 0.0, 0.0, 0.0, 0.0, 0.0, 0.0, 0.0, 1.6896026936561403E9, 0.0, 2023-07-17 16:04:53.656
115.0, -175682.25272682344, -180449.5892464625, -177852.92003785612, -177339.2993020176, -180493.68923827284, -182059.42893736708, -184536.82923755996, 187500.0, 0.034, -0.002, 1.006, 192.0, 0.0, 0.0, 0.0, 0.0, 0.0, 0.0, 0.0, 0.0, 0.0, 1.6896026936561613E9, 0.0, 2023-07-17 16:04:53.656
116.0, -175684.2643838244, -180445.25300803818, -177854.21643903453, -177322.06610704257, -180482.93804918983, -182052.9692832195, -184563.94190358423, 187500.0, 0.028, -0.002, 1.006, 192.0, 0.0, 224.0, 255.0, 240.0, 31.0, 112.0, 0.0, 0.0, 0.0, 1.6896026936561813E9, 0.0, 2023-07-17 16:04:53.656
117.0, -175672.8649941522, -180434.0324323216, -177846.4380319641, -177300.42961840983, -180455.6465692099, -182038.463001068, -184535.13050498135, 187500.0, 0.028, -0.002, 1.006, 192.0, 0.0, 0.0, 0.0, 0.0, 0.0, 0.0, 0.0, 0.0, 0.0, 1.6896026936562033E9, 0.0, 2023-07-17 16:04:53.656
118.0, -175674.04963660834, -180453.344339531, -177857.39038674717, -177296.07102824104, -180448.4493074953, -182053.86335299772, -184519.7078013072, 187500.0, 0.028, -0.002, 1.006, 192.0, 0.0, 0.0, 0.0, 0.0, 0.0, 0.0, 0.0, 0.0, 0.0, 1.6896026936562257E9, 0.0, 2023-07-17 16:04:53.656
119.0, -175691.39459030566, -180474.57849676354, -177866.48754674048, -177297.32272593054, -180460.22867682323, -182072.34824566226, -184513.0022779706, 187500.0, 0.028, -0.002, 1.006, 192.0, 0.0, 0.0, 0.0, 0.0, 0.0, 0.0, 0.0, 0.0, 0.0, 1.689602693656248E9, 0.0, 2023-07-17 16:04:53.656
120.0, -175723.06701219882, -180471.82923219554, -177884.41364579365, -177289.36550490448, -180437.72047015672, -182077.9138300316, -184523.21702518666, 187500.0, 0.028, -0.002, 1.006, 192.0, 0.0, 0.0, 0.0, 0.0, 0.0, 0.0, 0.0, 0.0, 0.0, 1.6896026941322868E9, 0.0, 2023-07-17 16:04:54.132
121.0, -175686.05252338084, -180467.02360713764, -177871.29317179837, -177283.37523739043, -180437.4969527122, -182061.57470483478, -184527.97794675565, 187500.0, 0.028, -0.002, 1.006, 192.0, 0.0, 0.0, 0.0, 0.0, 0.0, 0.0, 0.0, 0.0, 0.0, 1.689602694132448E9, 0.0, 2023-07-17 16:04:54.132
122.0, -175698.50244504242, -180459.08873785601, -177877.01521837895, -177301.27898469914, -180455.26658955414, -182057.57374257728, -184540.67373760627, 187500.0, 0.028, -0.002, 1.006, 192.0, 0.0, 0.0, 0.0, 0.0, 0.0, 0.0, 0.0, 0.0, 0.0, 1.6896026941325169E9, 0.0, 2023-07-17 16:04:54.132
123.0, -175673.13321508566, -180455.87008665444, -177864.92292462863, -177300.38491492093, -180445.81180164957, -182042.79923949233, -184523.39583914232, 187500.0, 0.028, -0.002, 1.006, 192.0, 0.0, 0.0, 0.0, 0.0, 0.0, 0.0, 0.0, 0.0, 0.0, 1.6896026941325457E9, 0.0, 2023-07-17 16:04:54.132
124.0, -175667.88055513866, -180472.20921185127, -177864.09591008376, -177305.34700219, -180457.4570605108, -182051.82934425227, -184507.5037488346, 187500.0, 0.028, -0.002, 1.006, 192.0, 0.0, 0.0, 0.0, 0.0, 0.0, 0.0, 0.0, 0.0, 0.0, 1.6896026941325712E9, 0.0, 2023-07-17 16:04:54.132
125.0, -175694.99322116296, -180452.51732498614, -177851.86950586672, -177302.3965719219, -180453.16552557534, -182035.04318416634, -184505.0450569445, 187500.0, 0.028, -0.002, 1.006, 192.0, 0.0, 0.0, 0.0, 0.0, 0.0, 0.0, 0.0, 0.0, 0.0, 1.689602694132596E9, 0.0, 2023-07-17 16:04:54.132
126.0, -175729.90664600214, -180446.9517406168, -177848.7849651319, -177325.7541448777, -180476.38898806443, -182033.09858239873, -184519.12665595135, 187500.0, 0.03, -0.008, 1.004, 192.0, 0.0, 240.0, 255.0, 192.0, 31.0, 96.0, 0.0, 0.0, 0.0, 1.6896026941326203E9, 0.0, 2023-07-17 16:04:54.132
127.0, -175735.89691351616, -180433.56304568806, -177831.68588062358, -177340.5062962182, -180499.97007846477, -182019.0616868808, -184526.54743511052, 187500.0, 0.03, -0.008, 1.004, 192.0, 0.0, 0.0, 0.0, 0.0, 0.0, 0.0, 0.0, 0.0, 0.0, 1.689602694132646E9, 0.0, 2023-07-17 16:04:54.132
128.0, -175749.35266367826, -180405.93628954128, -177817.33606068327, -177336.08065081606, -180503.5463575776, -181998.36397151518, -184521.49594086362, 187500.0, 0.03, -0.008, 1.004, 192.0, 0.0, 0.0, 0.0, 0.0, 0.0, 0.0, 0.0, 0.0, 0.0, 1.689602694132671E9, 0.0, 2023-07-17 16:04:54.132
129.0, -175762.0261027844, -180385.4397398758, -177813.9609472705, -177343.7025956753, -180504.17220642237, -181993.84891913523, -184513.9634029822, 187500.0, 0.03, -0.008, 1.004, 192.0, 0.0, 0.0, 0.0, 0.0, 0.0, 0.0, 0.0, 0.0, 0.0, 1.6896026941326976E9, 0.0, 2023-07-17 16:04:54.132
130.0, -175764.14951850768, -180383.60689683043, -177846.34862498625, -177349.3128835336, -180509.7601425362, -182027.15301837362, -184511.7505802811, 187500.0, 0.03, -0.008, 1.004, 192.0, 0.0, 0.0, 0.0, 0.0, 0.0, 0.0, 0.0, 0.0, 0.0, 1.689602694132724E9, 0.0, 2023-07-17 16:04:54.132
131.0, -175770.2962482329, -180399.2307662047, -177859.1785263036, -177337.7123281613, -180507.6143750685, -182039.78175399086, -184503.1451586658, 187500.0, 0.03, -0.008, 1.004, 192.0, 0.0, 0.0, 0.0, 0.0, 0.0, 0.0, 0.0, 0.0, 0.0, 1.6896026941327512E9, 0.0, 2023-07-17 16:04:54.132
132.0, -175776.55473668038, -180414.78758034558, -177866.77811941842, -177331.34208099154, -180499.18776740885, -182052.9692832195, -184491.56695503797, 187500.0, 0.03, -0.008, 1.004, 192.0, 0.0, 0.0, 0.0, 0.0, 0.0, 0.0, 0.0, 0.0, 0.0, 1.6896026941327739E9, 0.0, 2023-07-17 16:04:54.132
133.0, -175763.25544872947, -180430.36674623095, -177874.26595381094, -177329.33042399056, -180493.4433690838, -182062.8711060132, -184477.6865217312, 187500.0, 0.03, -0.008, 1.004, 192.0, 0.0, 0.0, 0.0, 0.0, 0.0, 0.0, 0.0, 0.0, 0.0, 1.6896026941327972E9, 0.0, 2023-07-17 16:04:54.132
134.0, -175761.6237713842, -180419.86142633695, -177850.9307325996, -177330.67152865787, -180506.11680818998, -182077.28798118688, -184482.67096074476, 187500.0, 0.03, -0.008, 1.004, 192.0, 0.0, 0.0, 0.0, 0.0, 0.0, 0.0, 0.0, 0.0, 0.0, 1.6896026941328204E9, 0.0, 2023-07-17 16:04:54.132
135.0, -175778.07465530332, -180394.827472547, -177835.44097369208, -177316.25465348418, -180489.62122078196, -182082.2724202004, -184465.05778611396, 187500.0, 0.03, -0.008, 1.004, 192.0, 0.0, 0.0, 0.0, 0.0, 0.0, 0.0, 0.0, 0.0, 0.0, 1.6896026941328433E9, 0.0, 2023-07-17 16:04:54.132
136.0, -175753.9794747805, -180365.5243355661, -177828.75780209992, -177311.13610400393, -180492.9516307058, -182076.28215268638, -184439.10741080134, 187500.0, 0.032, -0.008, 1.002, 192.0, 1.0, 0.0, 255.0, 192.0, 31.0, 80.0, 0.0, 0.0, 0.0, 1.689602694132867E9, 0.0, 2023-07-17 16:04:54.132
137.0, -175775.77242562443, -180351.55449528154, -177823.90747355312, -177315.51704591716, -180503.59106106652, -182067.60967583774, -184446.32702426042, 187500.0, 0.032, -0.008, 1.002, 192.0, 0.0, 0.0, 0.0, 0.0, 0.0, 0.0, 0.0, 0.0, 0.0, 1.6896026941328917E9, 0.0, 2023-07-17 16:04:54.132
138.0, -175802.43805675962, -180350.95099818124, -177824.3768601867, -177312.43250518234, -180495.3432673625, -182063.36284439123, -184441.8343236249, 187500.0, 0.032, -0.008, 1.002, 192.0, 0.0, 0.0, 0.0, 0.0, 0.0, 0.0, 0.0, 0.0, 0.0, 1.689602694132916E9, 0.0, 2023-07-17 16:04:54.132
139.0, -175785.42837922912, -180372.4757280917, -177835.977415559, -177324.45774369928, -180514.364601894, -182077.2209259535, -184431.15018977528, 187500.0, 0.032, -0.008, 1.002, 192.0, 0.0, 0.0, 0.0, 0.0, 0.0, 0.0, 0.0, 0.0, 0.0, 1.6896026941329362E9, 0.0, 2023-07-17 16:04:54.132
140.0, -175812.56339699787, -180357.74592849566, -177862.97832286102, -177324.99418556623, -180508.68725880233, -182093.20242323907, -184473.55144900698, 187500.0, 0.032, -0.008, 1.002, 192.0, 0.0, 0.0, 0.0, 0.0, 0.0, 0.0, 0.0, 0.0, 0.0, 1.6896026941329563E9, 0.0, 2023-07-17 16:04:54.132
141.0, -175792.22330954354, -180359.7128820077, -177885.21830859405, -177341.9144561189, -180515.32572690558, -182100.71260937603, -184481.95570492218, 187500.0, 0.032, -0.008, 1.002, 192.0, 0.0, 0.0, 0.0, 0.0, 0.0, 0.0, 0.0, 0.0, 0.0, 1.6896026941329772E9, 0.0, 2023-07-17 16:04:54.132
142.0, -175794.43613224462, -180369.1229664234, -177880.9267736586, -177362.8580406735, -180498.38310460845, -182095.81757734032, -184452.16082956325, 187500.0, 0.032, -0.008, 1.002, 192.0, 0.0, 0.0, 0.0, 0.0, 0.0, 0.0, 0.0, 0.0, 0.0, 1.6896026941329978E9, 0.0, 2023-07-17 16:04:54.132
143.0, -175800.58286196983, -180365.88196347738, -177879.74213120248, -177366.94840990883, -180496.7961307521, -182090.85549007126, -184455.98297786512, 187500.0, 0.032, -0.008, 1.002, 192.0, 0.0, 0.0, 0.0, 0.0, 0.0, 0.0, 0.0, 0.0, 0.0, 1.6896026941330173E9, 0.0, 2023-07-17 16:04:54.133
144.0, -175766.96583830903, -180371.9169344803, -177868.32038978583, -177405.54987258316, -180527.4180206559, -182078.29380968737, -184464.96837913615, 187500.0, 0.032, -0.008, 1.002, 192.0, 0.0, 0.0, 0.0, 0.0, 0.0, 0.0, 0.0, 0.0, 0.0, 1.689602694133038E9, 0.0, 2023-07-17 16:04:54.133
145.0, -175765.7811958529, -180345.02778590057, -177850.9754360885, -177390.86477647602, -180513.29171816012, -182072.8176322958, -184505.2462226446, 187500.0, 0.032, -0.008, 1.002, 192.0, 0.0, 0.0, 0.0, 0.0, 0.0, 0.0, 0.0, 0.0, 0.0, 1.6896026941330588E9, 0.0, 2023-07-17 16:04:54.133
146.0, -175737.28272167238, -180343.17259111078, -177845.9239418416, -177410.89193950797, -180514.4093053829, -182086.13927199118, -184507.9060802348, 187500.0, 0.034, -0.008, 1.0, 192.0, 1.0, 16.0, 255.0, 192.0, 31.0, 64.0, 0.0, 0.0, 0.0, 1.6896026941330798E9, 0.0, 2023-07-17 16:04:54.133
147.0, -175707.51019805792, -180335.90827416282, -177841.5877034173, -177388.18256714137, -180542.05841327412, -182096.46577792952, -184521.63005133034, 187500.0, 0.034, -0.008, 1.0, 192.0, 0.0, 0.0, 0.0, 0.0, 0.0, 0.0, 0.0, 0.0, 0.0, 1.6896026941331005E9, 0.0, 2023-07-17 16:04:54.133
148.0, -175675.63661046466, -180341.83148644347, -177858.44091873657, -177390.21657588682, -180544.67356737537, -182109.65330715815, -184507.36963836785, 187500.0, 0.034, -0.008, 1.0, 192.0, 0.0, 0.0, 0.0, 0.0, 0.0, 0.0, 0.0, 0.0, 0.0, 1.6896026941331213E9, 0.0, 2023-07-17 16:04:54.133
149.0, -175625.83692381822, -180328.64395721484, -177837.1173545262, -177358.38769178244, -180571.74152991077, -182114.6824496606, -184510.99062096962, 187500.0, 0.034, -0.008, 1.0, 192.0, 0.0, 0.0, 0.0, 0.0, 0.0, 0.0, 0.0, 0.0, 0.0, 1.6896026941331418E9, 0.0, 2023-07-17 16:04:54.133
150.0, -175642.5560286708, -180354.23670461617, -177883.8772039267, -177373.18454661185, -180579.4752334923, -182154.2897408354, -184515.28215590504, 187500.0, 0.034, -0.008, 1.0, 192.0, 0.0, 0.0, 0.0, 0.0, 0.0, 0.0, 0.0, 0.0, 0.0, 1.6896026941331642E9, 0.0, 2023-07-17 16:04:54.133
151.0, -175645.8640868502, -180272.40696816528, -177865.07938683982, -177300.4519701543, -180537.3198434496, -182212.22546246357, -184635.7357067747, 187500.0, 0.034, -0.008, 1.0, 192.0, 0.0, 0.0, 0.0, 0.0, 0.0, 0.0, 0.0, 0.0, 0.0, 1.6896026941331847E9, 0.0, 2023-07-17 16:04:54.133
152.0, -175470.1123201981, -180183.9387636112, -177767.9163536926, -177268.46662383876, -180678.58286840713, -182356.0812897779, -184806.34657220205, 187500.0, 0.034, -0.008, 1.0, 192.0, 0.0, 0.0, 0.0, 0.0, 0.0, 0.0, 0.0, 0.0, 0.0, 1.6896026941332052E9, 0.0, 2023-07-17 16:04:54.133
153.0, -175361.92987703442, -180189.57140321392, -177743.9552836365, -177305.81638882356, -180745.74986049533, -182392.89461289582, -184799.59634537654, 187500.0, 0.034, -0.008, 1.0, 192.0, 0.0, 0.0, 0.0, 0.0, 0.0, 0.0, 0.0, 0.0, 0.0, 1.689602694133226E9, 0.0, 2023-07-17 16:04:54.133
154.0, -175455.00254094633, -180147.46071666013, -177755.8464116867, -177243.20915260425, -180679.99102830782, -182403.93637465674, -184842.10936333053, 187500.0, 0.034, -0.008, 1.0, 192.0, 0.0, 0.0, 0.0, 0.0, 0.0, 0.0, 0.0, 0.0, 0.0, 1.689602694133247E9, 0.0, 2023-07-17 16:04:54.133
155.0, -175345.3895861375, -180072.44826226812, -177700.25762322638, -177189.02852404458, -180773.66718932, -182504.7203904057, -184992.17897560349, 187500.0, 0.034, -0.008, 1.0, 192.0, 0.0, 0.0, 0.0, 0.0, 0.0, 0.0, 0.0, 0.0, 0.0, 1.6896026941332693E9, 0.0, 2023-07-17 16:04:54.133
156.0, -175236.08955575104, -180071.95652389008, -177707.81251285225, -177187.95564031074, -180830.1276958141, -182523.4288005148, -184978.43265276347, 187500.0, 0.038, -0.012, 0.998, 192.0, 1.0, 48.0, 255.0, 160.0, 31.0, 48.0, 0.0, 0.0, 0.0, 1.6896026941332903E9, 0.0, 2023-07-17 16:04:54.133
157.0, -175320.80266723665, -180060.89241038472, -177719.61423392466, -177167.59320111194, -180797.00241053134, -182502.95460259373, -184985.45110052242, 187500.0, 0.038, -0.012, 0.998, 192.0, 0.0, 0.0, 0.0, 0.0, 0.0, 0.0, 0.0, 0.0, 0.0, 1.689602694133312E9, 0.0, 2023-07-17 16:04:54.133
158.0, -175283.7658266742, -180068.29083779943, -177693.95443128998, -177197.3657247264, -180804.04321003475, -182476.37837843638, -184966.98855960235, 187500.0, 0.038, -0.012, 0.998, 192.0, 0.0, 0.0, 0.0, 0.0, 0.0, 0.0, 0.0, 0.0, 0.0, 1.6896026941333325E9, 0.0, 2023-07-17 16:04:54.133
159.0, -175346.21660068235, -180066.79327092093, -177690.71342834397, -177198.10333229345, -180790.29688719474, -182465.94011377575, -184943.11689652406, 187500.0, 0.038, -0.012, 0.998, 192.0, 0.0, 0.0, 0.0, 0.0, 0.0, 0.0, 0.0, 0.0, 0.0, 1.6896026941333535E9, 0.0, 2023-07-17 16:04:54.133
160.0, -175361.97458052333, -180073.61055297978, -177687.96416377596, -177213.4813324787, -180781.914983024, -182452.35025314693, -184915.62425084403, 187500.0, 0.038, -0.012, 0.998, 192.0, 0.0, 0.0, 0.0, 0.0, 0.0, 0.0, 0.0, 0.0, 0.0, 1.6896026941333752E9, 0.0, 2023-07-17 16:04:54.133
161.0, -175376.65967663046, -180084.96523916308, -177677.95058225997, -177234.82724843352, -180793.80611107423, -182408.58553750344, -184910.7515705528, 187500.0, 0.038, -0.012, 0.998, 192.0, 0.0, 0.0, 0.0, 0.0, 0.0, 0.0, 0.0, 0.0, 0.0, 1.689602694133396E9, 0.0, 2023-07-17 16:04:54.133
162.0, -175397.98324084084, -180091.38018982176, -177666.55119258777, -177239.5881700025, -180746.912151207, -182369.0900050509, -184862.80707869615, 187500.0, 0.038, -0.012, 0.998, 192.0, 0.0, 0.0, 0.0, 0.0, 0.0, 0.0, 0.0, 0.0, 0.0, 1.6896026941334257E9, 0.0, 2023-07-17 16:04:54.133
163.0, -175428.38161330007, -180116.63766105624, -177676.81064329276, -177271.8864407404, -180721.27470031678, -182353.60024614338, -184846.6244157105, 187500.0, 0.038, -0.012, 0.998, 192.0, 0.0, 0.0, 0.0, 0.0, 0.0, 0.0, 0.0, 0.0, 0.0, 1.689602694133448E9, 0.0, 2023-07-17 16:04:54.133
164.0, -175425.4088312875, -180127.88058851726, -177688.5900126207, -177295.98162126323, -180695.41373198197, -182332.85782728886, -184849.9771773788, 187500.0, 0.038, -0.012, 0.998, 192.0, 0.0, 0.0, 0.0, 0.0, 0.0, 0.0, 0.0, 0.0, 0.0, 1.6896026941334698E9, 0.0, 2023-07-17 16:04:54.133
165.0, -175460.05403519323, -180128.88641701775, -177683.4267596515, -177289.47726362673, -180677.57703990664, -182328.85686503135, -184837.46020048382, 187500.0, 0.038, -0.012, 0.998, 192.0, 0.0, 0.0, 0.0, 0.0, 0.0, 0.0, 0.0, 0.0, 0.0, 1.6896026941334913E9, 0.0, 2023-07-17 16:04:54.133
166.0, -175478.3154104132, -180125.64541407174, -177657.40932910555, -177297.43448465283, -180678.85108934058, -182314.14941717975, -184811.68863912686, 187500.0, 0.036000000000000004, -0.006, 0.998, 192.0, 1.0, 32.0, 255.0, 208.0, 31.0, 48.0, 0.0, 0.0, 0.0, 1.6896026941335125E9, 0.0, 2023-07-17 16:04:54.133
167.0, -175510.2784049843, -180117.55408257892, -177642.94775044295, -177299.110865487, -180683.67906614294, -182279.34775106286, -184802.18914773336, 187500.0, 0.036000000000000004, -0.006, 0.998, 192.0, 0.0, 0.0, 0.0, 0.0, 0.0, 0.0, 0.0, 0.0, 0.0, 1.689602694133534E9, 0.0, 2023-07-17 16:04:54.133
168.0, -175557.194716596, -180115.5647773224, -177665.6347710651, -177299.7590660762, -180675.78890035022, -182249.8658001263, -184787.7722725597, 187500.0, 0.036000000000000004, -0.006, 0.998, 192.0, 0.0, 0.0, 0.0, 0.0, 0.0, 0.0, 0.0, 0.0, 0.0, 1.6896026941335552E9, 0.0, 2023-07-17 16:04:54.133
169.0, -175585.71554252095, -180128.30527166193, -177704.97384130643, -177296.22749045223, -180663.56249613315, -182227.37994520427, -184768.0580339501, 187500.0, 0.036000000000000004, -0.006, 0.998, 192.0, 0.0, 0.0, 0.0, 0.0, 0.0, 0.0, 0.0, 0.0, 0.0, 1.6896026941335769E9, 0.0, 2023-07-17 16:04:54.133
170.0, -175587.63779254412, -180153.85331557435, -177713.62396641064, -177288.8961182709, -180643.37887089, -182216.6511078657, -184737.59260625753, 187500.0, 0.036000000000000004, -0.006, 0.998, 192.0, 0.0, 0.0, 0.0, 0.0, 0.0, 0.0, 0.0, 0.0, 0.0, 1.6896026941335986E9, 0.0, 2023-07-17 16:04:54.133
171.0, -175622.1041824942, -180189.1914235582, -177734.00875735388, -177284.67163856883, -180633.20882716286, -182223.69190736912, -184722.3040130501, 187500.0, 0.036000000000000004, -0.006, 0.998, 192.0, 0.0, 0.0, 0.0, 0.0, 0.0, 0.0, 0.0, 0.0, 0.0, 1.6896026941336195E9, 0.0, 2023-07-17 16:04:54.133
172.0, -175642.73484262644, -180218.11458088335, -177753.946513408, -177282.8387955235, -180623.41876309144, -182224.9659568031, -184702.5450709516, 187500.0, 0.036000000000000004, -0.006, 0.998, 192.0, 0.0, 0.0, 0.0, 0.0, 0.0, 0.0, 0.0, 0.0, 0.0, 1.6896026941336408E9, 0.0, 2023-07-17 16:04:54.133
173.0, -175634.86702857818, -180237.71706077066, -177755.5111355199, -177267.61725754946, -180607.50432103925, -182217.6122328773, -184674.51598340465, 187500.0, 0.036000000000000004, -0.006, 0.998, 192.0, 0.0, 0.0, 0.0, 0.0, 0.0, 0.0, 0.0, 0.0, 0.0, 1.6896026941336627E9, 0.0, 2023-07-17 16:04:54.133
174.0, -175640.209095503, -180234.61016829137, -177742.1000888467, -177261.91756271335, -180610.38769607397, -182195.64046807773, -184670.40326242486, 187500.0, 0.036000000000000004, -0.006, 0.998, 192.0, 0.0, 0.0, 0.0, 0.0, 0.0, 0.0, 0.0, 0.0, 0.0, 1.6896026941336842E9, 0.0, 2023-07-17 16:04:54.133
175.0, -175635.53758091183, -180248.6917672982, -177748.0456528718, -177290.66190608288, -180620.73655375678, -182178.92136322515, -184668.34690193497, 187500.0, 0.036000000000000004, -0.006, 0.998, 192.0, 0.0, 0.0, 0.0, 0.0, 0.0, 0.0, 0.0, 0.0, 0.0, 1.6896026941337054E9, 0.0, 2023-07-17 16:04:54.133
176.0, -175632.5647988993, -180260.62759883734, -177760.4508710445, -177283.41994087936, -180601.44699829185, -182175.9038777237, -184687.5470504221, 187500.0, 0.03, -0.006, 1.004, 192.0, 0.0, 240.0, 255.0, 208.0, 31.0, 96.0, 0.0, 0.0, 0.0, 1.689602694133727E9, 0.0, 2023-07-17 16:04:54.133
177.0, -175659.72216841247, -180259.91234301476, -177777.5723072973, -177290.5054438717, -180591.29930630914, -182164.61624677377, -184691.81623361306, 187500.0, 0.03, -0.006, 1.004, 192.0, 0.0, 0.0, 0.0, 0.0, 0.0, 0.0, 0.0, 0.0, 0.0, 1.6896026941337488E9, 0.0, 2023-07-17 16:04:54.133
178.0, -175623.53469413935, -180260.67230232625, -177772.02907467238, -177311.51608365966, -180605.31385008263, -182133.14499058068, -184676.70645436127, 187500.0, 0.03, -0.006, 1.004, 192.0, 0.0, 0.0, 0.0, 0.0, 0.0, 0.0, 0.0, 0.0, 0.0, 1.6896026941337712E9, 0.0, 2023-07-17 16:04:54.133
179.0, -175630.4637349205, -180243.72968002912, -177743.88822840314, -177306.1069615015, -180591.2322510758, -182128.45112424507, -184665.70939608925, 187500.0, 0.03, -0.006, 1.004, 192.0, 0.0, 0.0, 0.0, 0.0, 0.0, 0.0, 0.0, 0.0, 0.0, 1.6896026941337926E9, 0.0, 2023-07-17 16:04:54.133
180.0, -175690.90285192765, -180256.58193309093, -177756.58401925376, -177320.68029888635, -180598.72008546832, -182155.988473414, -184666.7375763342, 187500.0, 0.03, -0.006, 1.004, 192.0, 0.0, 0.0, 0.0, 0.0, 0.0, 0.0, 0.0, 0.0, 0.0, 1.6896026941338143E9, 0.0, 2023-07-17 16:04:54.133
181.0, -175662.71730216948, -180260.4487848817, -177739.84256265673, -177338.82991538406, -180619.19428338937, -182167.41021483068, -184650.6443203264, 187500.0, 0.03, -0.006, 1.004, 192.0, 0.0, 0.0, 0.0, 0.0, 0.0, 0.0, 0.0, 0.0, 0.0, 1.6896026941338356E9, 0.0, 2023-07-17 16:04:54.133
182.0, -175669.9145638841, -180250.9939969771, -177730.90186487458, -177329.26336875718, -180605.60442276055, -182173.42283408914, -184641.6812707998, 187500.0, 0.03, -0.006, 1.004, 192.0, 0.0, 0.0, 0.0, 0.0, 0.0, 0.0, 0.0, 0.0, 0.0, 1.6896026941338568E9, 0.0, 2023-07-17 16:04:54.133
183.0, -175634.77762160037, -180257.67716856924, -177722.76582989286, -177345.42367999838, -180615.21567287634, -182180.97772371504, -184631.7794480061, 187500.0, 0.03, -0.006, 1.004, 192.0, 0.0, 0.0, 0.0, 0.0, 0.0, 0.0, 0.0, 0.0, 0.0, 1.6896026941338787E9, 0.0, 2023-07-17 16:04:54.133
184.0, -175625.88162730716, -180265.14265121732, -177719.65893741357, -177360.7122732058, -180650.9337605159, -182171.5452875549, -184650.17493369282, 187500.0, 0.03, -0.006, 1.004, 192.0, 0.0, 0.0, 0.0, 0.0, 0.0, 0.0, 0.0, 0.0, 0.0, 1.6896026941339E9, 0.0, 2023-07-17 16:04:54.133
185.0, -175629.4132029311, -180253.6091510784, -177719.7483443914, -177364.2662005742, -180649.65971108197, -182149.2829500774, -184638.06028819803, 187500.0, 0.03, -0.006, 1.004, 192.0, 0.0, 0.0, 0.0, 0.0, 0.0, 0.0, 0.0, 0.0, 0.0, 1.689602694133922E9, 0.0, 2023-07-17 16:04:54.133
186.0, -175646.73580488394, -180254.5479243455, -177719.36836473565, -177384.47217756178, -180659.76269957575, -182135.0895923483, -184637.97088122022, 187500.0, 0.034, -0.008, 1.002, 192.0, 1.0, 16.0, 255.0, 192.0, 31.0, 80.0, 0.0, 0.0, 0.0, 1.6896026941339433E9, 0.0, 2023-07-17 16:04:54.133
187.0, -175671.12155808468, -180243.1485346733, -177750.1020133617, -177384.24866011724, -180648.76564130373, -182136.94478713808, -184627.0185264371, 187500.0, 0.034, -0.008, 1.002, 192.0, 0.0, 0.0, 0.0, 0.0, 0.0, 0.0, 0.0, 0.0, 0.0, 1.6896026941339648E9, 0.0, 2023-07-17 16:04:54.133
188.0, -175693.1156746287, -180230.25157812258, -177760.62968500017, -177381.27587810467, -180626.77152475974, -182123.42198174263, -184617.78725597708, 187500.0, 0.034, -0.008, 1.002, 192.0, 0.0, 0.0, 0.0, 0.0, 0.0, 0.0, 0.0, 0.0, 0.0, 1.6896026941339867E9, 0.0, 2023-07-17 16:04:54.133
189.0, -175690.3217065718, -180238.23115089312, -177740.8036876683, -177395.78216025617, -180634.0358417077, -182094.49882441747, -184610.29942158455, 187500.0, 0.034, -0.008, 1.002, 192.0, 0.0, 0.0, 0.0, 0.0, 0.0, 0.0, 0.0, 0.0, 0.0, 1.689602694134008E9, 0.0, 2023-07-17 16:04:54.134
190.0, -175714.975680706, -180254.27970341203, -177743.53060049185, -177373.0727878896, -180622.21176889085, -182096.84575758528, -184591.7251219422, 187500.0, 0.034, -0.008, 1.002, 192.0, 0.0, 0.0, 0.0, 0.0, 0.0, 0.0, 0.0, 0.0, 0.0, 1.6896026941340292E9, 0.0, 2023-07-17 16:04:54.134
191.0, -175733.23705592597, -180264.27093318355, -177760.07089138878, -177358.23122957128, -180599.6812104799, -182097.9856965525, -184586.69597943974, 187500.0, 0.034, -0.008, 1.002, 192.0, 0.0, 0.0, 0.0, 0.0, 0.0, 0.0, 0.0, 0.0, 0.0, 1.689602694134051E9, 0.0, 2023-07-17 16:04:54.134
192.0, -175696.3119740858, -180266.46140414017, -177757.18751635402, -177346.69772943232, -180581.28572479318, -182085.35696093526, -184586.04777885054, 187500.0, 0.034, -0.008, 1.002, 192.0, 0.0, 0.0, 0.0, 0.0, 0.0, 0.0, 0.0, 0.0, 0.0, 1.6896026941340723E9, 0.0, 2023-07-17 16:04:54.134
193.0, -175720.40715460863, -180264.047415739, -177766.1505658806, -177353.38090102447, -180574.98253285678, -182095.45994942903, -184591.568659731, 187500.0, 0.034, -0.008, 1.002, 192.0, 0.0, 0.0, 0.0, 0.0, 0.0, 0.0, 0.0, 0.0, 0.0, 1.6896026941340945E9, 0.0, 2023-07-17 16:04:54.134
194.0, -175730.17486693562, -180267.95897101867, -177756.02522564237, -177346.1612875654, -180562.24203851726, -182099.6397256422, -184568.99339783113, 187500.0, 0.034, -0.008, 1.002, 192.0, 0.0, 0.0, 0.0, 0.0, 0.0, 0.0, 0.0, 0.0, 0.0, 1.6896026941341157E9, 0.0, 2023-07-17 16:04:54.134
195.0, -175730.21957042452, -180285.39333169383, -177761.2555338449, -177342.115621819, -180567.4723467198, -182105.27236524492, -184543.9594440412, 187500.0, 0.034, -0.008, 1.002, 192.0, 0.0, 0.0, 0.0, 0.0, 0.0, 0.0, 0.0, 0.0, 0.0, 1.6896026941341376E9, 0.0, 2023-07-17 16:04:54.134
196.0, -175758.6733411161, -180287.2038229947, -177774.19719388452, -177346.47421198778, -180571.38390199948, -182104.2888884889, -184556.4987726806, 187500.0, 0.038, -0.006, 1.006, 192.0, 1.0, 48.0, 255.0, 208.0, 31.0, 112.0, 0.0, 0.0, 0.0, 1.689602694134159E9, 0.0, 2023-07-17 16:04:54.134
197.0, -175729.0796314573, -180296.12216903237, -177778.48872881994, -177364.69088371884, -180582.24684980477, -182094.11884476172, -184551.67079587828, 187500.0, 0.038, -0.006, 1.006, 192.0, 0.0, 0.0, 0.0, 0.0, 0.0, 0.0, 0.0, 0.0, 0.0, 1.6896026941341803E9, 0.0, 2023-07-17 16:04:54.134
198.0, -175715.80269525084, -180277.59257287893, -177779.8745369762, -177348.9552556223, -180577.15065206896, -182098.7233041195, -184533.25295844712, 187500.0, 0.038, -0.006, 1.006, 192.0, 0.0, 0.0, 0.0, 0.0, 0.0, 0.0, 0.0, 0.0, 0.0, 1.689602694134202E9, 0.0, 2023-07-17 16:04:54.134
199.0, -175764.39538769668, -180281.12414850286, -177800.05816221933, -177350.0057876117, -180573.70848342282, -182119.66688867414, -184534.61641485887, 187500.0, 0.038, -0.006, 1.006, 192.0, 0.0, 0.0, 0.0, 0.0, 0.0, 0.0, 0.0, 0.0, 0.0, 1.6896026941342232E9, 0.0, 2023-07-17 16:04:54.134
200.0, -175717.6802417851, -180274.46332865517, -177781.9085457216, -177363.75211045172, -180587.49950975174, -182126.35006026627, -184519.77485654055, 187500.0, 0.038, -0.006, 1.006, 192.0, 0.0, 0.0, 0.0, 0.0, 0.0, 0.0, 0.0, 0.0, 0.0, 1.6896026941342444E9, 0.0, 2023-07-17 16:04:54.134
201.0, -175718.30609062983, -180262.37103490485, -177770.7550252384, -177352.2186103128, -180585.48785275078, -182104.8923855892, -184522.9041007643, 187500.0, 0.038, -0.006, 1.006, 192.0, 0.0, 0.0, 0.0, 0.0, 0.0, 0.0, 0.0, 0.0, 0.0, 1.6896026941342676E9, 0.0, 2023-07-17 16:04:54.134
202.0, -175704.73858174548, -180277.14553798983, -177779.6733712761, -177377.14080538045, -180605.24679484926, -182098.0751035303, -184528.60379560041, 187500.0, 0.038, -0.006, 1.006, 192.0, 0.0, 0.0, 0.0, 0.0, 0.0, 0.0, 0.0, 0.0, 0.0, 1.6896026941342895E9, 0.0, 2023-07-17 16:04:54.134
203.0, -175675.97188663148, -180275.89384030033, -177754.68412097506, -177393.14465441045, -180630.6383765505, -182072.70587357355, -184534.99639451463, 187500.0, 0.038, -0.006, 1.006, 192.0, 0.0, 0.0, 0.0, 0.0, 0.0, 0.0, 0.0, 0.0, 0.0, 1.6896026941343107E9, 0.0, 2023-07-17 16:04:54.134
204.0, -175694.74735197396, -180275.96089553367, -177764.18361236856, -177379.75595948173, -180603.65982099294, -182068.63785608267, -184546.88752256485, 187500.0, 0.038, -0.006, 1.006, 192.0, 0.0, 0.0, 0.0, 0.0, 0.0, 0.0, 0.0, 0.0, 0.0, 1.689602694134332E9, 0.0, 2023-07-17 16:04:54.134
205.0, -175664.39368300364, -180294.2446224981, -177768.0504641593, -177371.7763867112, -180598.60832674603, -182066.06740547033, -184559.315092482, 187500.0, 0.036000000000000004, -0.008, 1.004, 192.0, 1.0, 32.0, 255.0, 192.0, 31.0, 96.0, 0.0, 0.0, 0.0, 1.6896026941343536E9, 0.0, 2023-07-17 16:04:54.134
206.0, -175679.83873842226, -180297.41857021078, -177773.34782759522, -177375.30796233512, -180566.17594554138, -182060.68063505657, -184573.3743397444, 187500.0, 0.036000000000000004, -0.008, 1.004, 192.0, 0.0, 0.0, 0.0, 0.0, 0.0, 0.0, 0.0, 0.0, 0.0, 1.6896026941343753E9, 0.0, 2023-07-17 16:04:54.134
207.0, -175669.35577027273, -180289.37194220687, -177773.6160485287, -177374.99503791274, -180541.83489582955, -182055.49503034295, -184562.89137159483, 187500.0, 0.036000000000000004, -0.008, 1.004, 192.0, 0.0, 0.0, 0.0, 0.0, 0.0, 0.0, 0.0, 0.0, 0.0, 1.6896026941343968E9, 0.0, 2023-07-17 16:04:54.134
208.0, -175679.34700004425, -180286.66738112777, -177748.87266741667, -177387.22144212978, -180559.60453267154, -182075.79041430837, -184559.560961671, 187500.0, 0.036000000000000004, -0.008, 1.004, 192.0, 0.0, 0.0, 0.0, 0.0, 0.0, 0.0, 0.0, 0.0, 0.0, 1.6896026941354036E9, 0.0, 2023-07-17 16:04:54.135
209.0, -175726.03979421136, -180287.51674741707, -177761.92608617857, -177392.98819219926, -180571.83093688858, -182108.5357199354, -184574.2237060337, 187500.0, 0.036000000000000004, -0.008, 1.004, 192.0, 0.0, 0.0, 0.0, 0.0, 0.0, 0.0, 0.0, 0.0, 0.0, 1.689602694135447E9, 0.0, 2023-07-17 16:04:54.135
210.0, -175666.65120919363, -180276.60909612288, -177746.81630692678, -177409.9308144964, -180579.5646404701, -182110.65913565864, -184547.62513013187, 187500.0, 0.036000000000000004, -0.008, 1.004, 192.0, 0.0, 0.0, 0.0, 0.0, 0.0, 0.0, 0.0, 0.0, 0.0, 1.6896026941354997E9, 0.0, 2023-07-17 16:04:54.135
211.0, -175646.17701127255, -180262.7957180495, -177736.44509749953, -177402.68884929287, -180583.0738643496, -182084.9322777906, -184544.09355450794, 187500.0, 0.036000000000000004, -0.008, 1.004, 192.0, 0.0, 0.0, 0.0, 0.0, 0.0, 0.0, 0.0, 0.0, 0.0, 1.6896026941355288E9, 0.0, 2023-07-17 16:04:54.135
212.0, -175642.48897343743, -180272.92105828776, -177742.01068186888, -177390.44009333136, -180572.79206190017, -182078.9196585321, -184527.9555950112, 187500.0, 0.036000000000000004, -0.008, 1.004, 192.0, 0.0, 0.0, 0.0, 0.0, 0.0, 0.0, 0.0, 0.0, 0.0, 1.6896026941355507E9, 0.0, 2023-07-17 16:04:54.135
213.0, -175656.88349686665, -180309.33205000547, -177772.90079270612, -177417.55275935566, -180597.11075986753, -182101.8749000877, -184533.00708925808, 187500.0, 0.036000000000000004, -0.008, 1.004, 192.0, 0.0, 0.0, 0.0, 0.0, 0.0, 0.0, 0.0, 0.0, 0.0, 1.6896026941355722E9, 0.0, 2023-07-17 16:04:54.135
214.0, -175659.43159573455, -180302.4477127132, -177775.1583188961, -177418.96091925632, -180609.27010885123, -182091.16841449362, -184543.78063008556, 187500.0, 0.036000000000000004, -0.008, 1.004, 192.0, 0.0, 0.0, 0.0, 0.0, 0.0, 0.0, 0.0, 0.0, 0.0, 1.6896026941355932E9, 0.0, 2023-07-17 16:04:54.135
215.0, -175635.06819427828, -180297.2621079996, -177759.37798731067, -177411.3166226526, -180609.11364664003, -182069.0178357384, -184543.84768531893, 187500.0, 0.032, -0.006, 1.01, 192.0, 1.0, 0.0, 255.0, 208.0, 31.0, 144.0, 0.0, 0.0, 0.0, 1.6896026941356142E9, 0.0, 2023-07-17 16:04:54.135
216.0, -175639.82911584724, -180280.43124442475, -177731.25949278587, -177409.88611100748, -180605.24679484926, -182038.68651851255, -184534.01291775858, 187500.0, 0.032, -0.006, 1.01, 192.0, 0.0, 0.0, 0.0, 0.0, 0.0, 0.0, 0.0, 0.0, 0.0, 1.6896026941356351E9, 0.0, 2023-07-17 16:04:54.135
217.0, -175672.99910461894, -180285.795663094, -177741.36248127968, -177419.20678844533, -180580.0787305926, -182046.6213877942, -184507.32493487894, 187500.0, 0.032, -0.006, 1.01, 192.0, 0.0, 0.0, 0.0, 0.0, 0.0, 0.0, 0.0, 0.0, 0.0, 1.6896026941356564E9, 0.0, 2023-07-17 16:04:54.135
218.0, -175702.19048287757, -180290.1095497739, -177738.97084462296, -177424.6829658369, -180549.07686103307, -182052.5222483304, -184481.10633863288, 187500.0, 0.032, -0.006, 1.01, 192.0, 0.0, 0.0, 0.0, 0.0, 0.0, 0.0, 0.0, 0.0, 0.0, 1.689602694135677E9, 0.0, 2023-07-17 16:04:54.135
219.0, -175736.14278270517, -180305.2640325146, -177740.58017022375, -177430.1814949729, -180529.2732154457, -182048.61069305072, -184460.38627152282, 187500.0, 0.032, -0.006, 1.01, 192.0, 0.0, 0.0, 0.0, 0.0, 0.0, 0.0, 0.0, 0.0, 0.0, 1.6896026941356983E9, 0.0, 2023-07-17 16:04:54.135
220.0, -175745.66462584314, -180332.4661055167, -177767.04463565882, -177432.7742973297, -180533.90002654793, -182055.22680940948, -184461.48150700112, 187500.0, 0.032, -0.006, 1.01, 192.0, 0.0, 0.0, 0.0, 0.0, 0.0, 0.0, 0.0, 0.0, 0.0, 1.6896026941357195E9, 0.0, 2023-07-17 16:04:54.135
221.0, -175737.77446005042, -180324.30771879051, -177760.2050018555, -177422.4701431358, -180546.68522437636, -182043.13451565916, -184469.48343151613, 187500.0, 0.032, -0.006, 1.01, 192.0, 0.0, 0.0, 0.0, 0.0, 0.0, 0.0, 0.0, 0.0, 0.0, 1.6896026941357417E9, 0.0, 2023-07-17 16:04:54.135
222.0, -175752.9289427911, -180331.08029736046, -177756.42755704257, -177431.29908219565, -180533.65415735892, -182043.29097787035, -184459.15692557776, 187500.0, 0.032, -0.006, 1.01, 192.0, 0.0, 0.0, 0.0, 0.0, 0.0, 0.0, 0.0, 0.0, 0.0, 1.6896026941357636E9, 0.0, 2023-07-17 16:04:54.135
223.0, -175739.8308205403, -180329.94035839324, -177759.3556355662, -177442.20673348985, -180521.33834616403, -182040.69817551353, -184446.0364515825, 187500.0, 0.032, -0.006, 1.01, 192.0, 0.0, 0.0, 0.0, 0.0, 0.0, 0.0, 0.0, 0.0, 0.0, 1.689602694135785E9, 0.0, 2023-07-17 16:04:54.135
224.0, -175737.46153562804, -180328.2192740702, -177754.6617692306, -177454.43313770692, -180542.90777956342, -182029.1199718857, -184455.8935708873, 187500.0, 0.032, -0.006, 1.01, 192.0, 0.0, 0.0, 0.0, 0.0, 0.0, 0.0, 0.0, 0.0, 0.0, 1.6896026941358063E9, 0.0, 2023-07-17 16:04:54.135
225.0, -175749.79969856737, -180303.1629685358, -177735.7521934214, -177438.96573054383, -180538.25861671672, -182000.88971863865, -184450.52915221802, 187500.0, 0.036000000000000004, -0.002, 1.002, 192.0, 1.0, 32.0, 255.0, 240.0, 31.0, 80.0, 0.0, 0.0, 0.0, 1.6896026941358275E9, 0.0, 2023-07-17 16:04:54.135
226.0, -175762.1825649956, -180311.0531343285, -177736.28863528834, -177426.64991934894, -180531.39663116893, -181994.98885810244, -184450.55150396246, 187500.0, 0.036000000000000004, -0.002, 1.002, 192.0, 0.0, 0.0, 0.0, 0.0, 0.0, 0.0, 0.0, 0.0, 0.0, 1.6896026941358492E9, 0.0, 2023-07-17 16:04:54.135
227.0, -175753.71125384705, -180339.64101548685, -177753.58888549672, -177418.84916053407, -180533.78826782564, -182010.8138931768, -184439.8897218573, 187500.0, 0.036000000000000004, -0.002, 1.002, 192.0, 0.0, 0.0, 0.0, 0.0, 0.0, 0.0, 0.0, 0.0, 0.0, 1.68960269413587E9, 0.0, 2023-07-17 16:04:54.135
228.0, -175751.05139625687, -180356.49423080616, -177757.8580686877, -177399.00081145775, -180525.65223284392, -182023.6661462386, -184427.46215194013, 187500.0, 0.036000000000000004, -0.002, 1.002, 192.0, 0.0, 0.0, 0.0, 0.0, 0.0, 0.0, 0.0, 0.0, 0.0, 1.6896026941358912E9, 0.0, 2023-07-17 16:04:54.135
229.0, -175766.7870243534, -180364.2279343877, -177785.14954866763, -177393.368171855, -180502.51817733268, -182035.221998122, -184442.54957944748, 187500.0, 0.036000000000000004, -0.002, 1.002, 192.0, 0.0, 0.0, 0.0, 0.0, 0.0, 0.0, 0.0, 0.0, 0.0, 1.6896026941359127E9, 0.0, 2023-07-17 16:04:54.135
230.0, -175726.59858782275, -180379.74004503968, -177794.09024644975, -177395.42453234488, -180510.1624739364, -182027.7565154739, -184464.00725412456, 187500.0, 0.036000000000000004, -0.002, 1.002, 192.0, 0.0, 0.0, 0.0, 0.0, 0.0, 0.0, 0.0, 0.0, 0.0, 1.6896026941359377E9, 0.0, 2023-07-17 16:04:54.135
231.0, -175750.3808439232, -180357.54476279556, -177782.84731898873, -177366.50137501972, -180487.00606668068, -182027.48829454044, -184448.3833847503, 187500.0, 0.036000000000000004, -0.002, 1.002, 192.0, 0.0, 0.0, 0.0, 0.0, 0.0, 0.0, 0.0, 0.0, 0.0, 1.6896026941359582E9, 0.0, 2023-07-17 16:04:54.135
232.0, -175754.2253439695, -180366.08312917748, -177769.8162519713, -177377.81135771412, -180496.7514272632, -182044.36386160422, -184435.6875938997, 187500.0, 0.036000000000000004, -0.002, 1.002, 192.0, 0.0, 0.0, 0.0, 0.0, 0.0, 0.0, 0.0, 0.0, 0.0, 1.6896026941359792E9, 0.0, 2023-07-17 16:04:54.135
233.0, -175764.21657374105, -180388.4795771217, -177777.43819683054, -177371.75403496673, -180501.08766568755, -182054.66801579812, -184430.3902304638, 187500.0, 0.036000000000000004, -0.002, 1.002, 192.0, 0.0, 0.0, 0.0, 0.0, 0.0, 0.0, 0.0, 0.0, 0.0, 1.6896026941359997E9, 0.0, 2023-07-17 16:04:54.135
234.0, -175794.50318747797, -180403.05291450655, -177804.14853145464, -177362.1204331065, -180491.81169173858, -182066.51444035943, -184452.65256794126, 187500.0, 0.036000000000000004, -0.002, 1.002, 192.0, 0.0, 0.0, 0.0, 0.0, 0.0, 0.0, 0.0, 0.0, 0.0, 1.6896026941360204E9, 0.0, 2023-07-17 16:04:54.136
235.0, -175767.21170749806, -180404.14814998486, -177808.99886000145, -177345.848363143, -180490.02355218216, -182069.64368458316, -184464.14136459128, 187500.0, 0.034, -0.006, 1.004, 192.0, 1.0, 16.0, 255.0, 208.0, 31.0, 96.0, 0.0, 0.0, 0.0, 1.6896026941360416E9, 0.0, 2023-07-17 16:04:54.136
236.0, -175760.34972195028, -180390.2230131892, -177794.5149295944, -177346.87654338797, -180503.23343315526, -182050.84586749625, -184477.99944615358, 187500.0, 0.034, -0.006, 1.004, 192.0, 0.0, 0.0, 0.0, 0.0, 0.0, 0.0, 0.0, 0.0, 0.0, 1.689602694136062E9, 0.0, 2023-07-17 16:04:54.136
237.0, -175746.22341945453, -180387.76432129912, -177791.43038885956, -177353.24679055772, -180512.73292454873, -182049.84003899575, -184475.89838217478, 187500.0, 0.034, -0.006, 1.004, 192.0, 0.0, 0.0, 0.0, 0.0, 0.0, 0.0, 0.0, 0.0, 0.0, 1.689602694136082E9, 0.0, 2023-07-17 16:04:54.136
238.0, -175736.25454142745, -180380.3211903955, -177766.0164554139, -177358.67826446038, -180532.1118869915, -182066.58149559278, -184466.57770473693, 187500.0, 0.034, -0.006, 1.004, 192.0, 0.0, 0.0, 0.0, 0.0, 0.0, 0.0, 0.0, 0.0, 0.0, 1.689602694136103E9, 0.0, 2023-07-17 16:04:54.136
239.0, -175758.1816027381, -180354.12494589388, -177746.27986505986, -177337.1982380388, -180517.94088100683, -182076.34920791976, -184457.36878602134, 187500.0, 0.034, -0.006, 1.004, 192.0, 0.0, 0.0, 0.0, 0.0, 0.0, 0.0, 0.0, 0.0, 0.0, 1.6896026941361232E9, 0.0, 2023-07-17 16:04:54.136
240.0, -175727.04562271186, -180356.42717557278, -177747.17393483807, -177367.03781688664, -180539.77853533966, -182092.46481567202, -184447.66812892773, 187500.0, 0.034, -0.006, 1.004, 192.0, 0.0, 0.0, 0.0, 0.0, 0.0, 0.0, 0.0, 0.0, 0.0, 1.6896026946116505E9, 0.0, 2023-07-17 16:04:54.611
241.0, -175719.96011971953, -180336.57882649646, -177741.83186791325, -177366.367264553, -180547.26636973218, -182110.70383914755, -184457.61465521035, 187500.0, 0.034, -0.006, 1.004, 192.0, 0.0, 0.0, 0.0, 0.0, 0.0, 0.0, 0.0, 0.0, 0.0, 1.6896026946117165E9, 0.0, 2023-07-17 16:04:54.611
242.0, -175696.24491885246, -180331.34851829393, -177740.33430103475, -177374.25743034572, -180544.24888423074, -182112.76019963744, -184446.95287310515, 187500.0, 0.034, -0.006, 1.004, 192.0, 0.0, 0.0, 0.0, 0.0, 0.0, 0.0, 0.0, 0.0, 0.0, 1.6896026946117637E9, 0.0, 2023-07-17 16:04:54.611
243.0, -175687.08070362578, -180336.93645440775, -177743.1059173472, -177407.3156603951, -180528.356793923, -182108.84864435776, -184463.82844016893, 187500.0, 0.034, -0.006, 1.004, 192.0, 0.0, 0.0, 0.0, 0.0, 0.0, 0.0, 0.0, 0.0, 0.0, 1.689602694611806E9, 0.0, 2023-07-17 16:04:54.611
244.0, -175712.85226498274, -180343.88784693336, -177769.59273452673, -177404.09700919356, -180500.9982587097, -182109.496844947, -184489.17531838125, 187500.0, 0.034, -0.006, 1.004, 192.0, 0.0, 0.0, 0.0, 0.0, 0.0, 0.0, 0.0, 0.0, 0.0, 1.6896026946118486E9, 0.0, 2023-07-17 16:04:54.611
245.0, -175688.1088838707, -180369.4135391013, -177790.73748478145, -177412.8141895311, -180510.6542123144, -182104.91473733363, -184497.98190569662, 187500.0, 0.032, -0.002, 1.006, 192.0, 1.0, 0.0, 255.0, 240.0, 31.0, 112.0, 0.0, 0.0, 0.0, 1.6896026946118915E9, 0.0, 2023-07-17 16:04:54.611
246.0, -175707.3313841023, -180375.40380661533, -177798.82881627427, -177383.68986650585, -180497.1984621523, -182098.2762692304, -184481.0392833995, 187500.0, 0.032, -0.002, 1.006, 192.0, 0.0, 0.0, 0.0, 0.0, 0.0, 0.0, 0.0, 0.0, 0.0, 1.689602694611934E9, 0.0, 2023-07-17 16:04:54.611
247.0, -175707.06316316882, -180357.25419011764, -177794.35846738322, -177364.7132354633, -180486.51432830267, -182082.09360624477, -184461.99559712358, 187500.0, 0.032, -0.002, 1.006, 192.0, 0.0, 0.0, 0.0, 0.0, 0.0, 0.0, 0.0, 0.0, 0.0, 1.689602694611977E9, 0.0, 2023-07-17 16:04:54.611
248.0, -175680.73280820047, -180358.39412908486, -177787.65294404663, -177378.5713170256, -180506.8097122681, -182071.4765276285, -184472.56797225095, 187500.0, 0.032, -0.002, 1.006, 192.0, 0.0, 0.0, 0.0, 0.0, 0.0, 0.0, 0.0, 0.0, 0.0, 1.6896026946120005E9, 0.0, 2023-07-17 16:04:54.612
249.0, -175709.05246842533, -180376.6778560493, -177801.80159828684, -177368.04364538714, -180501.60175581, -182085.64753361317, -184513.22579541514, 187500.0, 0.032, -0.002, 1.006, 192.0, 0.0, 0.0, 0.0, 0.0, 0.0, 0.0, 0.0, 0.0, 0.0, 1.68960269461202E9, 0.0, 2023-07-17 16:04:54.612
250.0, -175683.2585553239, -180389.19483294425, -177806.5178163669, -177363.372130796, -180495.92441271836, -182076.7738910644, -184508.97896396864, 187500.0, 0.032, -0.002, 1.006, 192.0, 0.0, 0.0, 0.0, 0.0, 0.0, 0.0, 0.0, 0.0, 0.0, 1.689602694612048E9, 0.0, 2023-07-17 16:04:54.612
251.0, -175694.70264848502, -180392.99462950166, -177806.5178163669, -177341.78034565217, -180482.71453174527, -182071.8788590287, -184533.16355146928, 187500.0, 0.032, -0.002, 1.006, 192.0, 0.0, 0.0, 0.0, 0.0, 0.0, 0.0, 0.0, 0.0, 0.0, 1.6896026946120715E9, 0.0, 2023-07-17 16:04:54.612
252.0, -175703.2186631225, -180400.2812981941, -177816.3749356717, -177340.8639241295, -180480.32289508855, -182069.8224985388, -184521.89827226382, 187500.0, 0.032, -0.002, 1.006, 192.0, 0.0, 0.0, 0.0, 0.0, 0.0, 0.0, 0.0, 0.0, 0.0, 1.6896026946120942E9, 0.0, 2023-07-17 16:04:54.612
253.0, -175677.55886048783, -180386.3785131429, -177781.95324921052, -177350.92220913438, -180504.32866863356, -182084.64170511268, -184514.96923148265, 187500.0, 0.032, -0.002, 1.006, 192.0, 0.0, 0.0, 0.0, 0.0, 0.0, 0.0, 0.0, 0.0, 0.0, 1.6896026946121175E9, 0.0, 2023-07-17 16:04:54.612
254.0, -175695.48495954098, -180378.7342165392, -177797.13008369567, -177341.48977297425, -180473.43855779633, -182085.75929233542, -184530.61545260137, 187500.0, 0.032, -0.002, 1.006, 192.0, 0.0, 0.0, 0.0, 0.0, 0.0, 0.0, 0.0, 0.0, 0.0, 1.6896026946121423E9, 0.0, 2023-07-17 16:04:54.612
255.0, -175669.24401155044, -180403.32113544003, -177819.6159386177, -177351.4586510013, -180484.34620909052, -182082.98767602298, -184544.54058939705, 187500.0, 0.036000000000000004, -0.002, 1.004, 192.0, 1.0, 32.0, 255.0, 240.0, 31.0, 96.0, 0.0, 0.0, 0.0, 1.689602694612167E9, 0.0, 2023-07-17 16:04:54.612
0.0, -175698.2118723645, -180412.26183322215, -177830.1659620006, -177332.347909492, -180477.59598226502, -182088.9332400481, -184527.59796709992, 187500.0, 0.036000000000000004, -0.002, 1.004, 192.0, 0.0, 0.0, 0.0, 0.0, 0.0, 0.0, 0.0, 0.0, 0.0, 1.6896026946121912E9, 0.0, 2023-07-17 16:04:54.612
1.0, -175717.99316620745, -180403.58935637347, -177836.49150568148, -177329.82216236857, -180468.11884261595, -182093.6271063837, -184506.14029242282, 187500.0, 0.036000000000000004, -0.002, 1.004, 192.0, 0.0, 0.0, 0.0, 0.0, 0.0, 0.0, 0.0, 0.0, 0.0, 1.689602694612216E9, 0.0, 2023-07-17 16:04:54.612
2.0, -175675.99423837595, -180385.66325732032, -177809.98233675747, -177345.7589561652, -180490.42588358236, -182107.37342922372, -184499.32301036394, 187500.0, 0.036000000000000004, -0.002, 1.004, 192.0, 0.0, 0.0, 0.0, 0.0, 0.0, 0.0, 0.0, 0.0, 0.0, 1.6896026946122403E9, 0.0, 2023-07-17 16:04:54.612
3.0, -175699.39651482066, -180364.20558264322, -177814.85501704874, -177340.03690958465, -180470.35401706147, -182117.7893421399, -184515.81859777195, 187500.0, 0.036000000000000004, -0.002, 1.004, 192.0, 0.0, 0.0, 0.0, 0.0, 0.0, 0.0, 0.0, 0.0, 0.0, 1.6896026946122663E9, 0.0, 2023-07-17 16:04:54.612
4.0, -175651.67554040856, -180358.2153151292, -177796.12425519517, -177371.84344194454, -180502.4511220993, -182131.55801672436, -184543.64651961884, 187500.0, 0.036000000000000004, -0.002, 1.004, 192.0, 0.0, 0.0, 0.0, 0.0, 0.0, 0.0, 0.0, 0.0, 0.0, 1.6896026946122909E9, 0.0, 2023-07-17 16:04:54.612
5.0, -175682.63270647917, -180336.2659020741, -177803.23210993197, -177365.33908430804, -180484.9497061908, -182134.53079873693, -184581.4209677483, 187500.0, 0.036000000000000004, -0.002, 1.004, 192.0, 0.0, 0.0, 0.0, 0.0, 0.0, 0.0, 0.0, 0.0, 0.0, 1.6896026946123147E9, 0.0, 2023-07-17 16:04:54.612
6.0, -175639.717357125, -180339.23868408665, -177793.68791504955, -177380.65002925994, -180494.27038362867, -182141.6833569626, -184593.73677894316, 187500.0, 0.036000000000000004, -0.002, 1.004, 192.0, 0.0, 0.0, 0.0, 0.0, 0.0, 0.0, 0.0, 0.0, 0.0, 1.6896026946123395E9, 0.0, 2023-07-17 16:04:54.612
7.0, -175636.3645954567, -180317.80336115402, -177769.72684499348, -177364.19914534083, -180500.08183718706, -182144.56673199736, -184632.96409046222, 187500.0, 0.036000000000000004, -0.002, 1.004, 192.0, 0.0, 0.0, 0.0, 0.0, 0.0, 0.0, 0.0, 0.0, 0.0, 1.689602694612366E9, 0.0, 2023-07-17 16:04:54.612
8.0, -175601.49587410642, -180300.27959350107, -177752.27013257387, -177365.1155668635, -180496.93024121886, -182132.3403277803, -184610.29942158455, 187500.0, 0.036000000000000004, -0.002, 1.004, 192.0, 0.0, 0.0, 0.0, 0.0, 0.0, 0.0, 0.0, 0.0, 0.0, 1.689602694612404E9, 0.0, 2023-07-17 16:04:54.612
9.0, -175601.58528108423, -180305.84517787042, -177755.3546733087, -177385.88033746247, -180530.92724453536, -182157.91072343718, -184619.39658157786, 187500.0, 0.038, -0.006, 1.008, 192.0, 1.0, 48.0, 255.0, 208.0, 31.0, 128.0, 0.0, 0.0, 0.0, 1.689602694612426E9, 0.0, 2023-07-17 16:04:54.612
10.0, -175627.8932843081, -180302.8500441134, -177776.25355437442, -177398.50907307974, -180532.7153840918, -182172.0593776774, -184609.83003495098, 187500.0, 0.038, -0.006, 1.008, 192.0, 0.0, 0.0, 0.0, 0.0, 0.0, 0.0, 0.0, 0.0, 0.0, 1.6896026946124494E9, 0.0, 2023-07-17 16:04:54.612
11.0, -175578.22770812843, -180290.66834338527, -177749.8561441727, -177407.15919818392, -180558.24107625976, -182165.73383399652, -184587.3218282845, 187500.0, 0.038, -0.006, 1.008, 192.0, 0.0, 0.0, 0.0, 0.0, 0.0, 0.0, 0.0, 0.0, 0.0, 1.6896026946124735E9, 0.0, 2023-07-17 16:04:54.612
12.0, -175611.68826957804, -180265.96966576215, -177743.37413828066, -177384.47217756178, -180525.65223284392, -182161.8893339502, -184560.7009006382, 187500.0, 0.038, -0.006, 1.008, 192.0, 0.0, 0.0, 0.0, 0.0, 0.0, 0.0, 0.0, 0.0, 0.0, 1.6896026946124988E9, 0.0, 2023-07-17 16:04:54.612
13.0, -175581.26754537434, -180272.38461642084, -177736.98153936645, -177417.10572446653, -180542.55015165213, -182178.8990114807, -184547.9604062987, 187500.0, 0.038, -0.006, 1.008, 192.0, 0.0, 0.0, 0.0, 0.0, 0.0, 0.0, 0.0, 0.0, 0.0, 1.6896026946125233E9, 0.0, 2023-07-17 16:04:54.612
14.0, -175627.33449069672, -180256.02313947954, -177756.78518495386, -177384.20395662833, -180526.4121921554, -182185.98451447304, -184590.11579634142, 187500.0, 0.038, -0.006, 1.008, 192.0, 0.0, 0.0, 0.0, 0.0, 0.0, 0.0, 0.0, 0.0, 0.0, 1.6896026946125486E9, 0.0, 2023-07-17 16:04:54.612
15.0, -175531.24434128337, -180275.26799145556, -177761.99314141192, -177398.44201784636, -180588.2371173188, -182188.24204066303, -184603.41508429233, 187500.0, 0.038, -0.006, 1.008, 192.0, 0.0, 0.0, 0.0, 0.0, 0.0, 0.0, 0.0, 0.0, 0.0, 1.689602694612573E9, 0.0, 2023-07-17 16:04:54.612
16.0, -175573.22091737043, -180255.33023540143, -177767.20109787, -177380.85119496004, -180569.10402406505, -182194.09819771032, -184592.28391555356, 187500.0, 0.038, -0.006, 1.008, 192.0, 0.0, 0.0, 0.0, 0.0, 0.0, 0.0, 0.0, 0.0, 0.0, 1.6896026946125977E9, 0.0, 2023-07-17 16:04:54.612
17.0, -175545.39299552358, -180269.03185475254, -177762.77545246787, -177412.83654127558, -180595.8367104336, -182211.46550315208, -184578.4258339913, 187500.0, 0.038, -0.006, 1.008, 192.0, 0.0, 0.0, 0.0, 0.0, 0.0, 0.0, 0.0, 0.0, 0.0, 1.6896026946126227E9, 0.0, 2023-07-17 16:04:54.612
18.0, -175564.2355160994, -180254.43616562322, -177753.4994785189, -177395.64804978945, -180594.09327436605, -182212.8513113083, -184571.18386878778, 187500.0, 0.038, -0.006, 1.008, 192.0, 0.0, 0.0, 0.0, 0.0, 0.0, 0.0, 0.0, 0.0, 0.0, 1.6896026946126478E9, 0.0, 2023-07-17 16:04:54.612
19.0, -175576.81954822774, -180261.43226163773, -177767.42461531458, -177418.3350704116, -180600.59763200255, -182231.8055906064, -184568.27814200858, 187500.0, 0.038, -0.004, 1.01, 192.0, 1.0, 48.0, 255.0, 224.0, 31.0, 144.0, 0.0, 0.0, 0.0, 1.6896026946126733E9, 0.0, 2023-07-17 16:04:54.612
20.0, -175560.10044337518, -180234.16313340227, -177746.72689994896, -177404.54404408266, -180600.64233549146, -182227.93873881566, -184600.66581972432, 187500.0, 0.038, -0.004, 1.01, 192.0, 0.0, 0.0, 0.0, 0.0, 0.0, 0.0, 0.0, 0.0, 0.0, 1.6896026946126976E9, 0.0, 2023-07-17 16:04:54.612
21.0, -175553.30551306077, -180236.2865491255, -177749.0961848612, -177407.114494695, -180590.31582955312, -182222.2166922351, -184592.86506090942, 187500.0, 0.038, -0.004, 1.01, 192.0, 0.0, 0.0, 0.0, 0.0, 0.0, 0.0, 0.0, 0.0, 0.0, 1.689602694612723E9, 0.0, 2023-07-17 16:04:54.612
22.0, -175534.68650992948, -180207.85513017836, -177742.3012545468, -177389.00958168623, -180582.76093992722, -182202.77067455897, -184611.99815416316, 187500.0, 0.038, -0.004, 1.01, 192.0, 0.0, 0.0, 0.0, 0.0, 0.0, 0.0, 0.0, 0.0, 0.0, 1.6896026946127467E9, 0.0, 2023-07-17 16:04:54.612
23.0, -175560.0333881418, -180220.6850314957, -177783.1602434111, -177394.2175381443, -180577.93296312488, -182214.88532005376, -184620.7823897341, 187500.0, 0.038, -0.004, 1.01, 192.0, 0.0, 0.0, 0.0, 0.0, 0.0, 0.0, 0.0, 0.0, 0.0, 1.6896026946127734E9, 0.0, 2023-07-17 16:04:54.612
24.0, -175538.82158265373, -180217.1311041273, -177768.8104234708, -177367.59661049803, -180606.54319602766, -182222.48491316856, -184668.12338449043, 187500.0, 0.038, -0.004, 1.01, 192.0, 0.0, 0.0, 0.0, 0.0, 0.0, 0.0, 0.0, 0.0, 0.0, 1.689602694612798E9, 0.0, 2023-07-17 16:04:54.612
25.0, -175536.56405646374, -180223.1437233858, -177793.91143249412, -177365.85317443052, -180603.4810070373, -182227.6705178822, -184655.62875933992, 187500.0, 0.038, -0.004, 1.01, 192.0, 0.0, 0.0, 0.0, 0.0, 0.0, 0.0, 0.0, 0.0, 0.0, 1.6896026946128268E9, 0.0, 2023-07-17 16:04:54.612
26.0, -175519.5320271888, -180207.72101971164, -177775.8735747187, -177365.54025000814, -180615.57330078763, -182231.9620528176, -184694.72196039226, 187500.0, 0.038, -0.004, 1.01, 192.0, 0.0, 0.0, 0.0, 0.0, 0.0, 0.0, 0.0, 0.0, 0.0, 1.6896026946128545E9, 0.0, 2023-07-17 16:04:54.612
27.0, -175532.74190816187, -180218.91924368375, -177789.23991790295, -177378.07957864756, -180606.38673381647, -182238.44405870963, -184686.07183528805, 187500.0, 0.038, -0.004, 1.01, 192.0, 0.0, 0.0, 0.0, 0.0, 0.0, 0.0, 0.0, 0.0, 0.0, 1.689602694612881E9, 0.0, 2023-07-17 16:04:54.612
28.0, -175532.13841106158, -180157.9660365541, -177761.23318210046, -177320.68029888635, -180596.26139357823, -182254.24674203954, -184759.31850186808, 187500.0, 0.038, -0.004, 1.01, 192.0, 0.0, 0.0, 0.0, 0.0, 0.0, 0.0, 0.0, 0.0, 0.0, 1.689602694612907E9, 0.0, 2023-07-17 16:04:54.612
29.0, -175398.29616526322, -180150.1205742503, -177758.1486413656, -177352.7103486908, -180649.86087678207, -182275.30208531645, -184770.67318805138, 187500.0, 0.036000000000000004, -0.006, 1.014, 192.0, 1.0, 32.0, 255.0, 208.0, 31.0, 176.0, 0.0, 0.0, 0.0, 1.6896026946129355E9, 0.0, 2023-07-17 16:04:54.612
30.0, -175455.49427932434, -180141.60455961284, -177779.472205576, -177342.54030496365, -180628.7831817607, -182285.53918427697, -184796.2659354527, 187500.0, 0.036000000000000004, -0.006, 1.014, 192.0, 0.0, 0.0, 0.0, 0.0, 0.0, 0.0, 0.0, 0.0, 0.0, 1.689602694612962E9, 0.0, 2023-07-17 16:04:54.612
31.0, -175444.5642762857, -180154.769737097, -177779.42750208706, -177377.3196193361, -180646.50811511377, -182298.21262338312, -184801.67505761088, 187500.0, 0.036000000000000004, -0.006, 1.014, 192.0, 0.0, 0.0, 0.0, 0.0, 0.0, 0.0, 0.0, 0.0, 0.0, 1.6896026946129875E9, 0.0, 2023-07-17 16:04:54.612
32.0, -175485.78089306128, -180143.1691817247, -177788.7705312694, -177343.18850555285, -180633.00766146276, -182295.70922800413, -184836.99081385028, 187500.0, 0.036000000000000004, -0.006, 1.014, 192.0, 0.0, 0.0, 0.0, 0.0, 0.0, 0.0, 0.0, 0.0, 0.0, 1.689602694613016E9, 0.0, 2023-07-17 16:04:54.613
33.0, -175403.1017903211, -180152.9145423072, -177780.05335093182, -177351.4139475124, -180664.143641489, -182283.8628034428, -184822.8645113545, 187500.0, 0.036000000000000004, -0.006, 1.014, 192.0, 0.0, 0.0, 0.0, 0.0, 0.0, 0.0, 0.0, 0.0, 0.0, 1.6896026946130414E9, 0.0, 2023-07-17 16:04:54.613
34.0, -175446.8665059646, -180139.50349563404, -177782.57909805526, -177313.05835402707, -180648.631530837, -182290.6800855017, -184816.65072639595, 187500.0, 0.036000000000000004, -0.006, 1.014, 192.0, 0.0, 0.0, 0.0, 0.0, 0.0, 0.0, 0.0, 0.0, 0.0, 1.689602694613067E9, 0.0, 2023-07-17 16:04:54.613
35.0, -175433.83543894714, -180166.5714581694, -177787.98822021345, -177320.03209829715, -180674.09016777162, -182306.41571359822, -184801.67505761088, 187500.0, 0.036000000000000004, -0.006, 1.014, 192.0, 0.0, 0.0, 0.0, 0.0, 0.0, 0.0, 0.0, 0.0, 0.0, 1.689602694613094E9, 0.0, 2023-07-17 16:04:54.613
36.0, -175478.158948202, -180179.80369088694, -177789.03875220285, -177294.61816485145, -180651.9395890164, -182291.66356225772, -184815.10845602854, 187500.0, 0.036000000000000004, -0.006, 1.014, 192.0, 0.0, 0.0, 0.0, 0.0, 0.0, 0.0, 0.0, 0.0, 0.0, 1.6896026946131196E9, 0.0, 2023-07-17 16:04:54.613
37.0, -175490.00537276332, -180189.79492065846, -177787.22826090196, -177285.96803974727, -180630.0795829391, -182268.01541662402, -184786.40881614792, 187500.0, 0.036000000000000004, -0.006, 1.014, 192.0, 0.0, 0.0, 0.0, 0.0, 0.0, 0.0, 0.0, 0.0, 0.0, 1.6896026946131473E9, 0.0, 2023-07-17 16:04:54.613
38.0, -175496.59913737763, -180191.22543230362, -177768.02811241488, -177301.4577986548, -180645.882266269, -182278.29721907346, -184776.88697300994, 187500.0, 0.036000000000000004, -0.006, 1.014, 192.0, 0.0, 0.0, 0.0, 0.0, 0.0, 0.0, 0.0, 0.0, 0.0, 1.6896026946131756E9, 0.0, 2023-07-17 16:04:54.613
39.0, -175530.41732673853, -180193.41590326023, -177770.57621128278, -177298.5073683867, -180611.03589666318, -182268.44009976866, -184776.77521428769, 187500.0, 0.036000000000000004, -0.01, 1.008, 192.0, 1.0, 32.0, 255.0, 176.0, 31.0, 128.0, 0.0, 0.0, 0.0, 1.6896026946132011E9, 0.0, 2023-07-17 16:04:54.613
40.0, -175510.01018405083, -180218.1816361167, -177773.07960666175, -177304.609394623, -180612.62287051952, -182245.99894833553, -184783.63719983544, 187500.0, 0.036000000000000004, -0.01, 1.008, 192.0, 0.0, 0.0, 0.0, 0.0, 0.0, 0.0, 0.0, 0.0, 0.0, 1.6896026946132288E9, 0.0, 2023-07-17 16:04:54.613
41.0, -175540.85559139916, -180217.55578727197, -177773.95132469552, -177305.92814754584, -180567.53940195317, -182221.23321547906, -184781.13380445648, 187500.0, 0.036000000000000004, -0.01, 1.008, 192.0, 0.0, 0.0, 0.0, 0.0, 0.0, 0.0, 0.0, 0.0, 0.0, 1.6896026946132593E9, 0.0, 2023-07-17 16:04:54.613
42.0, -175551.942056649, -180220.26034835106, -177769.39156882663, -177310.62201388145, -180545.03119528666, -182215.37705843177, -184765.9569699713, 187500.0, 0.036000000000000004, -0.01, 1.008, 192.0, 0.0, 0.0, 0.0, 0.0, 0.0, 0.0, 0.0, 0.0, 0.0, 1.6896026946132843E9, 0.0, 2023-07-17 16:04:54.613
43.0, -175533.72538491793, -180224.21660711966, -177745.92223714857, -177324.63655765494, -180569.6181141875, -182231.00092780602, -184755.96574019978, 187500.0, 0.036000000000000004, -0.01, 1.008, 192.0, 0.0, 0.0, 0.0, 0.0, 0.0, 0.0, 0.0, 0.0, 0.0, 1.6896026946133113E9, 0.0, 2023-07-17 16:04:54.613
44.0, -175577.66891451704, -180238.11939217083, -177754.43825178605, -177313.50538891618, -180551.66966338988, -182231.6714801397, -184772.97541773028, 187500.0, 0.036000000000000004, -0.01, 1.008, 192.0, 0.0, 0.0, 0.0, 0.0, 0.0, 0.0, 0.0, 0.0, 0.0, 1.6896026946133394E9, 0.0, 2023-07-17 16:04:54.613
45.0, -175556.97119915142, -180244.22141840713, -177750.0573098728, -177310.89023481493, -180546.57346565407, -182203.84355829284, -184768.03568220566, 187500.0, 0.036000000000000004, -0.01, 1.008, 192.0, 0.0, 0.0, 0.0, 0.0, 0.0, 0.0, 0.0, 0.0, 0.0, 1.6896026946133633E9, 0.0, 2023-07-17 16:04:54.613
46.0, -175566.180117867, -180238.81229624897, -177746.41397552658, -177311.94076680433, -180556.25177100324, -182177.22263064655, -184766.6498740494, 187500.0, 0.036000000000000004, -0.01, 1.008, 192.0, 0.0, 0.0, 0.0, 0.0, 0.0, 0.0, 0.0, 0.0, 0.0, 1.6896026946134152E9, 0.0, 2023-07-17 16:04:54.613
47.0, -175590.5435193233, -180248.4458981092, -177756.695777976, -177321.88729308694, -180562.39850072845, -182176.84265099082, -184757.0609756781, 187500.0, 0.036000000000000004, -0.01, 1.008, 192.0, 0.0, 0.0, 0.0, 0.0, 0.0, 0.0, 0.0, 0.0, 0.0, 1.689602694613456E9, 0.0, 2023-07-17 16:04:54.613
48.0, -175552.2773328158, -180240.62278754983, -177726.67738517254, -177327.6987466453, -180570.33337001008, -182178.98841845852, -184731.78115269914, 187500.0, 0.036000000000000004, -0.01, 1.008, 192.0, 0.0, 0.0, 0.0, 0.0, 0.0, 0.0, 0.0, 0.0, 0.0, 1.6896026946134784E9, 0.0, 2023-07-17 16:04:54.613
49.0, -175582.0945599192, -180245.7413370301, -177726.40916423907, -177328.32459549006, -180582.80564341613, -182175.8591742348, -184741.10183013702, 187500.0, 0.032, -0.01, 1.008, 192.0, 1.0, 0.0, 255.0, 176.0, 31.0, 128.0, 0.0, 0.0, 0.0, 1.6896026946135035E9, 0.0, 2023-07-17 16:04:54.613
50.0, -175572.97504818143, -180253.38563363382, -177723.99517583792, -177355.19139232533, -180600.59763200255, -182155.00499665798, -184727.69078346383, 187500.0, 0.032, -0.01, 1.008, 192.0, 0.0, 0.0, 0.0, 0.0, 0.0, 0.0, 0.0, 0.0, 0.0, 1.689602694613531E9, 0.0, 2023-07-17 16:04:54.613
51.0, -175580.0381994293, -180237.5829503039, -177707.32077447424, -177348.84349690002, -180595.09910286654, -182121.81265614185, -184715.46437924678, 187500.0, 0.032, -0.01, 1.008, 192.0, 0.0, 0.0, 0.0, 0.0, 0.0, 0.0, 0.0, 0.0, 0.0, 1.6896026946135647E9, 0.0, 2023-07-17 16:04:54.613
52.0, -175618.17027547007, -180231.36916534536, -177707.0525535408, -177347.14476432142, -180597.04370463415, -182100.6902576316, -184711.12814082243, 187500.0, 0.032, -0.01, 1.008, 192.0, 0.0, 0.0, 0.0, 0.0, 0.0, 0.0, 0.0, 0.0, 0.0, 1.6896026946135917E9, 0.0, 2023-07-17 16:04:54.613
53.0, -175644.52298218288, -180230.72096475615, -177701.10698951568, -177361.29341856163, -180610.90178619645, -182089.31321970382, -184709.16118731038, 187500.0, 0.032, -0.01, 1.008, 192.0, 0.0, 0.0, 0.0, 0.0, 0.0, 0.0, 0.0, 0.0, 0.0, 1.689602694613614E9, 0.0, 2023-07-17 16:04:54.613
54.0, -175651.04969156382, -180224.4401245642, -177688.2323847094, -177365.2720290747, -180619.12722815602, -182064.61454208073, -184697.62768717142, 187500.0, 0.032, -0.01, 1.008, 192.0, 0.0, 0.0, 0.0, 0.0, 0.0, 0.0, 0.0, 0.0, 0.0, 1.6896026946136367E9, 0.0, 2023-07-17 16:04:54.613
55.0, -175683.63853497966, -180245.71898528564, -177705.7561523624, -177361.0251976282, -180609.49362629576, -182068.59315259376, -184683.74725386468, 187500.0, 0.032, -0.01, 1.008, 192.0, 0.0, 0.0, 0.0, 0.0, 0.0, 0.0, 0.0, 0.0, 0.0, 1.689602694613659E9, 0.0, 2023-07-17 16:04:54.613
56.0, -175678.51998549938, -180256.2466569241, -177714.11570478865, -177346.83183989907, -180600.44116979136, -182067.00617873744, -184667.58694262351, 187500.0, 0.032, -0.01, 1.008, 192.0, 0.0, 0.0, 0.0, 0.0, 0.0, 0.0, 0.0, 0.0, 0.0, 1.6896026946136825E9, 0.0, 2023-07-17 16:04:54.613
57.0, -175686.208985592, -180251.26221791055, -177691.1381114886, -177339.99220609572, -180601.1787773584, -182037.7700969899, -184661.57432336503, 187500.0, 0.032, -0.01, 1.008, 192.0, 0.0, 0.0, 0.0, 0.0, 0.0, 0.0, 0.0, 0.0, 0.0, 1.6896026946137068E9, 0.0, 2023-07-17 16:04:54.613
58.0, -175707.08551491328, -180253.6985580562, -177677.2800299263, -177339.67928167337, -180611.12530364102, -182026.7059834845, -184666.06702400054, 187500.0, 0.032, -0.01, 1.008, 192.0, 0.0, 0.0, 0.0, 0.0, 0.0, 0.0, 0.0, 0.0, 0.0, 1.689602694613731E9, 0.0, 2023-07-17 16:04:54.613
59.0, -175744.0329484979, -180256.62663657984, -177677.61530609315, -177340.32748226257, -180616.55677754365, -182025.5213410284, -184678.7851665956, 187500.0, 0.034, -0.01, 1.008, 192.0, 1.0, 16.0, 255.0, 176.0, 31.0, 128.0, 0.0, 0.0, 0.0, 1.6896026946137629E9, 0.0, 2023-07-17 16:04:54.613
60.0, -175713.94750046104, -180267.4001774073, -177679.67166658305, -177363.7074069628, -180630.25839689476, -182013.54080600035, -184678.0922625175, 187500.0, 0.034, -0.01, 1.008, 192.0, 0.0, 0.0, 0.0, 0.0, 0.0, 0.0, 0.0, 0.0, 0.0, 1.6896026946137953E9, 0.0, 2023-07-17 16:04:54.613
61.0, -175723.1787709211, -180272.74224433213, -177679.35874216066, -177374.25743034572, -180648.11744071453, -182041.25696912492, -184678.60635263997, 187500.0, 0.034, -0.01, 1.008, 192.0, 0.0, 0.0, 0.0, 0.0, 0.0, 0.0, 0.0, 0.0, 0.0, 1.6896026946138172E9, 0.0, 2023-07-17 16:04:54.613
62.0, -175763.0319312849, -180271.31173268697, -177678.7328933159, -177368.89301167644, -180638.4391353654, -182060.36771063422, -184666.67052110084, 187500.0, 0.034, -0.01, 1.008, 192.0, 0.0, 0.0, 0.0, 0.0, 0.0, 0.0, 0.0, 0.0, 0.0, 1.68960269461384E9, 0.0, 2023-07-17 16:04:54.613
63.0, -175714.5733493058, -180270.73058733114, -177653.3860151036, -177383.95808743933, -180657.48282164132, -182071.38712065067, -184644.56464583453, 187500.0, 0.034, -0.01, 1.008, 192.0, 0.0, 0.0, 0.0, 0.0, 0.0, 0.0, 0.0, 0.0, 0.0, 1.689602694613862E9, 0.0, 2023-07-17 16:04:54.613
64.0, -175732.2312274255, -180273.65866585477, -177673.97197174694, -177361.38282553945, -180624.75986775875, -182073.19761195156, -184621.60940427895, 187500.0, 0.034, -0.01, 1.008, 192.0, 0.0, 0.0, 0.0, 0.0, 0.0, 0.0, 0.0, 0.0, 0.0, 1.6896026946138856E9, 0.0, 2023-07-17 16:04:54.613
65.0, -175717.81435225182, -180294.46813994268, -177700.1458645041, -177361.4722325173, -180621.85414097956, -182078.45027189856, -184595.54727024405, 187500.0, 0.034, -0.01, 1.008, 192.0, 0.0, 0.0, 0.0, 0.0, 0.0, 0.0, 0.0, 0.0, 0.0, 1.6896026946139083E9, 0.0, 2023-07-17 16:04:54.613
66.0, -175726.1292011892, -180310.27082327259, -177709.6900593865, -177339.0087293397, -180609.53832978467, -182076.75153931996, -184568.9710460867, 187500.0, 0.034, -0.01, 1.008, 192.0, 0.0, 0.0, 0.0, 0.0, 0.0, 0.0, 0.0, 0.0, 0.0, 1.6896026946139305E9, 0.0, 2023-07-17 16:04:54.613
67.0, -175743.51885837544, -180306.3592679929, -177719.21190252446, -177316.00878429518, -180574.49079447877, -182066.64855082615, -184560.07505179348, 187500.0, 0.034, -0.01, 1.008, 192.0, 0.0, 0.0, 0.0, 0.0, 0.0, 0.0, 0.0, 0.0, 0.0, 1.6896026946139536E9, 0.0, 2023-07-17 16:04:54.613
68.0, -175719.3342708748, -180321.9607856227, -177736.24393179943, -177321.44025819784, -180574.60255320102, -182075.1645654636, -184573.93313335578, 187500.0, 0.034, -0.01, 1.008, 192.0, 0.0, 0.0, 0.0, 0.0, 0.0, 0.0, 0.0, 0.0, 0.0, 1.6896026946139748E9, 0.0, 2023-07-17 16:04:54.613
69.0, -175724.6316343107, -180319.569148966, -177734.99223410993, -177332.7502408922, -180579.38582651448, -182061.26178041243, -184589.31113354102, 187500.0, 0.036000000000000004, -0.006, 1.006, 192.0, 1.0, 32.0, 255.0, 208.0, 31.0, 112.0, 0.0, 0.0, 0.0, 1.6896026946139958E9, 0.0, 2023-07-17 16:04:54.613
70.0, -175717.59083480726, -180329.20275082623, -177738.88143764515, -177339.58987469555, -180591.9698586428, -182052.41048960813, -184597.89420341185, 187500.0, 0.036000000000000004, -0.006, 1.006, 192.0, 0.0, 0.0, 0.0, 0.0, 0.0, 0.0, 0.0, 0.0, 0.0, 1.6896026946140168E9, 0.0, 2023-07-17 16:04:54.614
71.0, -175685.8066541918, -180332.68962296125, -177727.30323401728, -177327.92226408987, -180635.5334085862, -182037.6136347787, -184610.321773329, 187500.0, 0.036000000000000004, -0.006, 1.006, 192.0, 0.0, 0.0, 0.0, 0.0, 0.0, 0.0, 0.0, 0.0, 0.0, 1.68960269461404E9, 0.0, 2023-07-17 16:04:54.614
72.0, -175692.64628799516, -180314.1153233189, -177733.62877769815, -177316.32170871756, -180630.2360451503, -182022.1685793601, -184603.19156684776, 187500.0, 0.036000000000000004, -0.006, 1.006, 192.0, 0.0, 0.0, 0.0, 0.0, 0.0, 0.0, 0.0, 0.0, 0.0, 1.6896026946140616E9, 0.0, 2023-07-17 16:04:54.614
73.0, -175669.78045341736, -180322.5195792341, -177741.34012953524, -177338.3605287505, -180638.8414667656, -182020.5592537593, -184600.68817146876, 187500.0, 0.036000000000000004, -0.006, 1.006, 192.0, 0.0, 0.0, 0.0, 0.0, 0.0, 0.0, 0.0, 0.0, 0.0, 1.689602694614083E9, 0.0, 2023-07-17 16:04:54.614
74.0, -175666.98648536045, -180307.18628253773, -177716.21676876745, -177334.87365661547, -180638.7744115322, -182032.09275389824, -184587.29947654004, 187500.0, 0.036000000000000004, -0.006, 1.006, 192.0, 0.0, 0.0, 0.0, 0.0, 0.0, 0.0, 0.0, 0.0, 0.0, 1.6896026946141045E9, 0.0, 2023-07-17 16:04:54.614
75.0, -175706.973756191, -180299.47493070067, -177711.5452541763, -177325.62003441097, -180624.91632996994, -182047.49310582795, -184572.34615949943, 187500.0, 0.036000000000000004, -0.006, 1.006, 192.0, 0.0, 0.0, 0.0, 0.0, 0.0, 0.0, 0.0, 0.0, 0.0, 1.6896026946141255E9, 0.0, 2023-07-17 16:04:54.614
76.0, -175694.59088976277, -180296.6586108993, -177686.06426549726, -177335.2089327823, -180631.64420505098, -182055.04799545385, -184560.9691215717, 187500.0, 0.036000000000000004, -0.006, 1.006, 192.0, 0.0, 0.0, 0.0, 0.0, 0.0, 0.0, 0.0, 0.0, 0.0, 1.689602694614147E9, 0.0, 2023-07-17 16:04:54.614
77.0, -175724.09519244375, -180307.07452381548, -177687.80770156477, -177311.53843540413, -180604.9785739158, -182056.00912046543, -184578.09055782444, 187500.0, 0.036000000000000004, -0.006, 1.006, 192.0, 0.0, 0.0, 0.0, 0.0, 0.0, 0.0, 0.0, 0.0, 0.0, 1.6896026946141684E9, 0.0, 2023-07-17 16:04:54.614
78.0, -175751.09609974577, -180319.09976233242, -177714.8533123557, -177323.09428728753, -180595.30026856664, -182071.25301018395, -184601.89516566935, 187500.0, 0.036000000000000004, -0.006, 1.006, 192.0, 0.0, 0.0, 0.0, 0.0, 0.0, 0.0, 0.0, 0.0, 0.0, 1.6896026946141896E9, 0.0, 2023-07-17 16:04:54.614
79.0, -175718.06022144083, -180301.3971807238, -177689.46173065447, -177324.07776404356, -180597.2895738232, -182077.2209259535, -184626.39267759238, 187500.0, 0.038, -0.008, 1.006, 192.0, 1.0, 48.0, 255.0, 192.0, 31.0, 112.0, 0.0, 0.0, 0.0, 1.6896026946142116E9, 0.0, 2023-07-17 16:04:54.614
80.0, -175792.15625431016, -180298.5138056891, -177711.8581785987, -177300.0496387541, -180574.78136715668, -182100.0420570424, -184643.4917621007, 187500.0, 0.038, -0.008, 1.006, 192.0, 0.0, 0.0, 0.0, 0.0, 0.0, 0.0, 0.0, 0.0, 0.0, 1.689602694614234E9, 0.0, 2023-07-17 16:04:54.614
81.0, -175697.42956130859, -180305.84517787042, -177692.65803011158, -177306.41988592385, -180639.5790743326, -182112.67079265963, -184686.56357366606, 187500.0, 0.038, -0.008, 1.006, 192.0, 0.0, 0.0, 0.0, 0.0, 0.0, 0.0, 0.0, 0.0, 0.0, 1.6896026946142557E9, 0.0, 2023-07-17 16:04:54.614
82.0, -175699.217700865, -180299.2067097672, -177724.10693456017, -177301.61426086596, -180616.42266707693, -182117.11878980623, -184679.54512590708, 187500.0, 0.038, -0.008, 1.006, 192.0, 0.0, 0.0, 0.0, 0.0, 0.0, 0.0, 0.0, 0.0, 0.0, 1.689602694614277E9, 0.0, 2023-07-17 16:04:54.614
83.0, -175643.13717402663, -180286.46621542767, -177700.65995462658, -177316.00878429518, -180637.2321411648, -182113.67662116012, -184709.9434983663, 187500.0, 0.038, -0.008, 1.006, 192.0, 0.0, 0.0, 0.0, 0.0, 0.0, 0.0, 0.0, 0.0, 0.0, 1.6896026946142983E9, 0.0, 2023-07-17 16:04:54.614
84.0, -175649.84269736323, -180277.43611066774, -177705.28676572882, -177297.61329860846, -180617.38379208848, -182104.0877227888, -184688.01643705566, 187500.0, 0.038, -0.008, 1.006, 192.0, 0.0, 0.0, 0.0, 0.0, 0.0, 0.0, 0.0, 0.0, 0.0, 1.6896026946143203E9, 0.0, 2023-07-17 16:04:54.614
85.0, -175622.46181040548, -180284.11928225987, -177691.47338765542, -177280.4918623557, -180655.82879255162, -182079.8807835437, -184685.7365591212, 187500.0, 0.038, -0.008, 1.006, 192.0, 0.0, 0.0, 0.0, 0.0, 0.0, 0.0, 0.0, 0.0, 0.0, 1.6896026946143432E9, 0.0, 2023-07-17 16:04:54.614
86.0, -175654.0671770653, -180284.67807587126, -177707.67840238553, -177260.75527200167, -180630.6383765505, -182076.43861489758, -184700.1534342949, 187500.0, 0.038, -0.008, 1.006, 192.0, 0.0, 0.0, 0.0, 0.0, 0.0, 0.0, 0.0, 0.0, 0.0, 1.6896026946143649E9, 0.0, 2023-07-17 16:04:54.614
87.0, -175640.43261294754, -180292.27766898606, -177722.72112640395, -177266.8796499824, -180622.61410029104, -182080.48428064398, -184700.98044883972, 187500.0, 0.038, -0.008, 1.006, 192.0, 0.0, 0.0, 0.0, 0.0, 0.0, 0.0, 0.0, 0.0, 0.0, 1.6896026946143975E9, 0.0, 2023-07-17 16:04:54.614
88.0, -175644.7017961385, -180279.4030641798, -177723.05640257077, -177271.46175759577, -180633.6782137964, -182104.06537104433, -184696.46539645977, 187500.0, 0.038, -0.008, 1.006, 192.0, 0.0, 0.0, 0.0, 0.0, 0.0, 0.0, 0.0, 0.0, 0.0, 1.689602694614421E9, 0.0, 2023-07-17 16:04:54.614
89.0, -175655.90002011062, -180284.0969305154, -177742.61417896918, -177290.0584089826, -180630.81719050615, -182129.99339461248, -184703.3944372409, 187500.0, 0.038, -0.01, 1.006, 192.0, 1.0, 48.0, 255.0, 176.0, 31.0, 112.0, 0.0, 0.0, 0.0, 1.6896026946144423E9, 0.0, 2023-07-17 16:04:54.614
90.0, -175606.39090614213, -180272.00463676508, -177710.11474253115, -177303.4024004224, -180650.35261516008, -182131.78153416893, -184732.60816724398, 187500.0, 0.038, -0.01, 1.006, 192.0, 0.0, 0.0, 0.0, 0.0, 0.0, 0.0, 0.0, 0.0, 0.0, 1.6896026946144636E9, 0.0, 2023-07-17 16:04:54.614
91.0, -175632.72126111048, -180266.37199716235, -177713.5569111773, -177286.9515165033, -180631.91242598445, -182141.21397032906, -184722.10284735, 187500.0, 0.038, -0.01, 1.006, 192.0, 0.0, 0.0, 0.0, 0.0, 0.0, 0.0, 0.0, 0.0, 0.0, 1.6896026946144853E9, 0.0, 2023-07-17 16:04:54.614
92.0, -175565.50956553337, -180267.8025088075, -177695.60846037968, -177268.80190000558, -180658.6898158419, -182149.55117101088, -184705.87548087543, 187500.0, 0.038, -0.01, 1.006, 192.0, 0.0, 0.0, 0.0, 0.0, 0.0, 0.0, 0.0, 0.0, 0.0, 1.6896026946145065E9, 0.0, 2023-07-17 16:04:54.614
93.0, -175599.30540314977, -180250.6587208103, -177698.62594588113, -177246.9865974172, -180637.8356382651, -182153.73094722402, -184681.95911430827, 187500.0, 0.038, -0.01, 1.006, 192.0, 0.0, 0.0, 0.0, 0.0, 0.0, 0.0, 0.0, 0.0, 0.0, 1.689602694614528E9, 0.0, 2023-07-17 16:04:54.614
94.0, -175589.76120826736, -180268.58481986343, -177708.86304484165, -177294.0593712401, -180657.8851530415, -182176.1497469127, -184676.90762006136, 187500.0, 0.038, -0.01, 1.006, 192.0, 0.0, 0.0, 0.0, 0.0, 0.0, 0.0, 0.0, 0.0, 0.0, 1.6896026946145492E9, 0.0, 2023-07-17 16:04:54.614
95.0, -175600.31123165027, -180280.56535489147, -177725.73861190543, -177285.07396996903, -180635.15342893047, -182160.5929327718, -184702.0980360625, 187500.0, 0.038, -0.01, 1.006, 192.0, 0.0, 0.0, 0.0, 0.0, 0.0, 0.0, 0.0, 0.0, 0.0, 1.6896026946145716E9, 0.0, 2023-07-17 16:04:54.614
96.0, -175562.20150735398, -180295.4516166987, -177741.0495568573, -177283.4422926238, -180618.61313803354, -182148.61239774377, -184683.09905327548, 187500.0, 0.038, -0.01, 1.006, 192.0, 0.0, 0.0, 0.0, 0.0, 0.0, 0.0, 0.0, 0.0, 0.0, 1.6896026946145933E9, 0.0, 2023-07-17 16:04:54.614
97.0, -175557.61939974062, -180309.9578988502, -177739.7531556789, -177275.17214717536, -180607.32550708362, -182143.8961796637, -184655.82992504002, 187500.0, 0.038, -0.01, 1.006, 192.0, 0.0, 0.0, 0.0, 0.0, 0.0, 0.0, 0.0, 0.0, 0.0, 1.6896026946146145E9, 0.0, 2023-07-17 16:04:54.614
98.0, -175599.30540314977, -180312.43894248473, -177763.37894956817, -177293.76879856215, -180613.58399553108, -182146.46663027606, -184663.60833211045, 187500.0, 0.038, -0.01, 1.006, 192.0, 0.0, 0.0, 0.0, 0.0, 0.0, 0.0, 0.0, 0.0, 0.0, 1.6896026946146352E9, 0.0, 2023-07-17 16:04:54.614
99.0, -175581.53576630782, -180323.39129726784, -177764.1165571352, -177308.31978420255, -180619.99894618976, -182128.67464168963, -184650.9348930043, 187500.0, 0.03, -0.006, 1.0, 192.0, 0.0, 240.0, 255.0, 208.0, 31.0, 64.0, 0.0, 0.0, 0.0, 1.6896026946146572E9, 0.0, 2023-07-17 16:04:54.614
100.0, -175599.19364442752, -180348.9169894358, -177780.1204061652, -177304.56469113406, -180621.94354795737, -182137.32476679384, -184638.0379364536, 187500.0, 0.03, -0.006, 1.0, 192.0, 0.0, 0.0, 0.0, 0.0, 0.0, 0.0, 0.0, 0.0, 0.0, 1.6896026946146796E9, 0.0, 2023-07-17 16:04:54.614
101.0, -175613.31994692326, -180324.15125657932, -177763.89303969062, -177278.100225699, -180598.04953313465, -182132.7873626694, -184614.14392163086, 187500.0, 0.03, -0.006, 1.0, 192.0, 0.0, 0.0, 0.0, 0.0, 0.0, 0.0, 0.0, 0.0, 0.0, 1.689602694614701E9, 0.0, 2023-07-17 16:04:54.614
102.0, -175633.2129994885, -180322.7654484231, -177748.4926877609, -177290.25957468268, -180597.51309126773, -182145.97489189805, -184614.1215698864, 187500.0, 0.03, -0.006, 1.0, 192.0, 0.0, 0.0, 0.0, 0.0, 0.0, 0.0, 0.0, 0.0, 0.0, 1.689602694614722E9, 0.0, 2023-07-17 16:04:54.614
103.0, -175635.9622640565, -180345.78774521206, -177765.43531005803, -177291.51127237218, -180596.75313195624, -182157.82131645936, -184647.06804121353, 187500.0, 0.03, -0.006, 1.0, 192.0, 0.0, 0.0, 0.0, 0.0, 0.0, 0.0, 0.0, 0.0, 0.0, 1.6896026946147432E9, 0.0, 2023-07-17 16:04:54.614
104.0, -175669.10990108372, -180343.79843995554, -177777.99699044193, -177285.00691473568, -180578.78232941419, -182149.37235705525, -184635.44513409678, 187500.0, 0.03, -0.006, 1.0, 192.0, 0.0, 0.0, 0.0, 0.0, 0.0, 0.0, 0.0, 0.0, 0.0, 1.6896026950924883E9, 0.0, 2023-07-17 16:04:55.092
105.0, -175612.60469110069, -180318.02687859858, -177736.98153936645, -177284.0010862352, -180575.9213061239, -182098.25391748594, -184607.1701773608, 187500.0, 0.03, -0.006, 1.0, 192.0, 0.0, 0.0, 0.0, 0.0, 0.0, 0.0, 0.0, 0.0, 0.0, 1.6896026950925465E9, 0.0, 2023-07-17 16:04:55.092
106.0, -175640.38790945863, -180323.30189029002, -177746.65984471558, -177296.4063044079, -180593.6238877325, -182095.1246732622, -184629.2313491382, 187500.0, 0.03, -0.006, 1.0, 192.0, 0.0, 0.0, 0.0, 0.0, 0.0, 0.0, 0.0, 0.0, 0.0, 1.6896026950925913E9, 0.0, 2023-07-17 16:04:55.092
107.0, -175628.4520779195, -180332.33199504996, -177751.06313837328, -177336.57238919407, -180625.54217881468, -182086.5192516469, -184628.89607297137, 187500.0, 0.03, -0.006, 1.0, 192.0, 0.0, 0.0, 0.0, 0.0, 0.0, 0.0, 0.0, 0.0, 0.0, 1.689602695092671E9, 0.0, 2023-07-17 16:04:55.092
108.0, -175622.46181040548, -180328.19692232573, -177751.33135930676, -177352.44212775733, -180635.15342893047, -182071.02949273938, -184629.81249449402, 187500.0, 0.03, -0.006, 1.0, 192.0, 0.0, 0.0, 0.0, 0.0, 0.0, 0.0, 0.0, 0.0, 0.0, 1.689602695092729E9, 0.0, 2023-07-17 16:04:55.092
109.0, -175644.29946473832, -180333.24841657263, -177762.2166588565, -177354.14086033593, -180635.80162951967, -182069.26370492743, -184634.8863404854, 187500.0, 0.032, -0.01, 1.002, 192.0, 1.0, 0.0, 255.0, 176.0, 31.0, 80.0, 0.0, 0.0, 0.0, 1.689602695092752E9, 0.0, 2023-07-17 16:04:55.092
110.0, -175608.96135675447, -180328.44279151474, -177744.51407724788, -177374.50329953473, -180655.40410940698, -182047.29194012785, -184623.15167464636, 187500.0, 0.032, -0.01, 1.002, 192.0, 0.0, 0.0, 0.0, 0.0, 0.0, 0.0, 0.0, 0.0, 0.0, 1.689602695092775E9, 0.0, 2023-07-17 16:04:55.092
111.0, -175621.0983539937, -180302.62652666887, -177731.10303057468, -177365.98728489724, -180636.00279521977, -182041.30167261383, -184607.572508761, 187500.0, 0.032, -0.01, 1.002, 192.0, 0.0, 0.0, 0.0, 0.0, 0.0, 0.0, 0.0, 0.0, 0.0, 1.689602695092798E9, 0.0, 2023-07-17 16:04:55.092
112.0, -175641.28197923684, -180289.93073581826, -177719.45777171347, -177364.33325580755, -180627.44207709338, -182040.25114062443, -184598.56475574552, 187500.0, 0.032, -0.01, 1.002, 192.0, 0.0, 0.0, 0.0, 0.0, 0.0, 0.0, 0.0, 0.0, 0.0, 1.6896026950928206E9, 0.0, 2023-07-17 16:04:55.092
113.0, -175656.83879337774, -180292.6576486418, -177714.96507107795, -177378.63837225895, -180648.4974203703, -182031.4669050535, -184606.5219767716, 187500.0, 0.032, -0.01, 1.002, 192.0, 0.0, 0.0, 0.0, 0.0, 0.0, 0.0, 0.0, 0.0, 0.0, 1.6896026950928433E9, 0.0, 2023-07-17 16:04:55.092
114.0, -175664.63955219265, -180276.85496531188, -177698.15655924758, -177364.55677325212, -180643.87060926802, -182007.7517041864, -184603.03510463657, 187500.0, 0.032, -0.01, 1.002, 192.0, 0.0, 0.0, 0.0, 0.0, 0.0, 0.0, 0.0, 0.0, 0.0, 1.6896026950928657E9, 0.0, 2023-07-17 16:04:55.092
115.0, -175651.0049880749, -180276.74320658963, -177697.12837900262, -177366.25550583072, -180649.3467866596, -181993.75951215738, -184602.36455230293, 187500.0, 0.032, -0.01, 1.002, 192.0, 0.0, 0.0, 0.0, 0.0, 0.0, 0.0, 0.0, 0.0, 0.0, 1.6896026950928884E9, 0.0, 2023-07-17 16:04:55.092
116.0, -175661.73382541345, -180286.24269798314, -177697.41895168053, -177384.18160488387, -180661.3496734321, -181993.31247726828, -184606.27610758258, 187500.0, 0.032, -0.01, 1.002, 192.0, 0.0, 0.0, 0.0, 0.0, 0.0, 0.0, 0.0, 0.0, 0.0, 1.6896026950929108E9, 0.0, 2023-07-17 16:04:55.092
117.0, -175666.27122953787, -180297.61973591088, -177714.6521466556, -177367.70836922032, -180638.46148710986, -181989.28916326634, -184587.94767712924, 187500.0, 0.032, -0.01, 1.002, 192.0, 0.0, 0.0, 0.0, 0.0, 0.0, 0.0, 0.0, 0.0, 0.0, 1.6896026950929334E9, 0.0, 2023-07-17 16:04:55.092
118.0, -175681.53747100086, -180316.08227683094, -177733.40526025358, -177350.83280215657, -180622.65880377995, -182003.34841052874, -184572.9273048553, 187500.0, 0.034, -0.004, 1.002, 192.0, 1.0, 16.0, 255.0, 224.0, 31.0, 80.0, 0.0, 0.0, 0.0, 1.6896026950929558E9, 0.0, 2023-07-17 16:04:55.092
119.0, -175670.33924702875, -180333.1143061059, -177746.12340284867, -177340.9980345962, -180613.62869902002, -182011.19387283255, -184550.73202261116, 187500.0, 0.034, -0.004, 1.002, 192.0, 0.0, 0.0, 0.0, 0.0, 0.0, 0.0, 0.0, 0.0, 0.0, 1.689602695092978E9, 0.0, 2023-07-17 16:04:55.092
120.0, -175691.12636937218, -180359.60112328545, -177758.6627314881, -177340.84157238505, -180609.33716408457, -182021.8556549377, -184544.87586556387, 187500.0, 0.034, -0.004, 1.002, 192.0, 0.0, 0.0, 0.0, 0.0, 0.0, 0.0, 0.0, 0.0, 0.0, 1.6896026950930004E9, 0.0, 2023-07-17 16:04:55.093
121.0, -175699.0165351649, -180364.8761349769, -177762.64134200112, -177312.27604297115, -180577.70944568032, -182018.5028932694, -184520.02072572956, 187500.0, 0.034, -0.004, 1.002, 192.0, 0.0, 0.0, 0.0, 0.0, 0.0, 0.0, 0.0, 0.0, 0.0, 1.689602695093023E9, 0.0, 2023-07-17 16:04:55.093
122.0, -175701.00584042142, -180382.69047530778, -177784.23312714495, -177315.04765928362, -180571.49566072176, -182035.19964637753, -184508.88955699082, 187500.0, 0.034, -0.004, 1.002, 192.0, 0.0, 0.0, 0.0, 0.0, 0.0, 0.0, 0.0, 0.0, 0.0, 1.6896026950930457E9, 0.0, 2023-07-17 16:04:55.093
123.0, -175696.08845664127, -180364.13852740987, -177751.89015291812, -177316.23230173974, -180575.83189914608, -182050.84586749625, -184505.4026848558, 187500.0, 0.034, -0.004, 1.002, 192.0, 0.0, 0.0, 0.0, 0.0, 0.0, 0.0, 0.0, 0.0, 0.0, 1.6896026950930684E9, 0.0, 2023-07-17 16:04:55.093
124.0, -175711.3770498487, -180339.32809106447, -177735.01458585437, -177307.29160395762, -180571.9650473553, -182043.715661015, -184500.32883886443, 187500.0, 0.034, -0.004, 1.002, 192.0, 0.0, 0.0, 0.0, 0.0, 0.0, 0.0, 0.0, 0.0, 0.0, 1.689602695093091E9, 0.0, 2023-07-17 16:04:55.093
125.0, -175733.728794304, -180335.86357067392, -177738.88143764515, -177330.93974959134, -180588.99707663024, -182036.25017836693, -184509.2471849021, 187500.0, 0.034, -0.004, 1.002, 192.0, 0.0, 0.0, 0.0, 0.0, 0.0, 0.0, 0.0, 0.0, 0.0, 1.689602695093114E9, 0.0, 2023-07-17 16:04:55.093
126.0, -175747.229247955, -180331.6167392274, -177736.08746958824, -177349.42464225588, -180605.24679484926, -182027.60005326272, -184513.2034436707, 187500.0, 0.034, -0.004, 1.002, 192.0, 0.0, 0.0, 0.0, 0.0, 0.0, 0.0, 0.0, 0.0, 0.0, 1.6896026950931368E9, 0.0, 2023-07-17 16:04:55.093
127.0, -175752.54896313537, -180334.88009391786, -177743.24002781394, -177335.54420894914, -180578.13412882498, -182016.33477405726, -184495.56791729547, 187500.0, 0.034, -0.004, 1.002, 192.0, 0.0, 0.0, 0.0, 0.0, 0.0, 0.0, 0.0, 0.0, 0.0, 1.6896026950931597E9, 0.0, 2023-07-17 16:04:55.093
128.0, -175750.69376834558, -180336.15414335183, -177756.7628332094, -177332.12439204747, -180556.94467508135, -182020.62630899268, -184476.74774846408, 187500.0, 0.032, -0.008, 1.0, 192.0, 1.0, 0.0, 255.0, 192.0, 31.0, 64.0, 0.0, 0.0, 0.0, 1.6896026950931823E9, 0.0, 2023-07-17 16:04:55.093
129.0, -175742.96006476405, -180323.68186994575, -177725.58214969424, -177342.83087764157, -180564.23134377378, -182031.13162888668, -184475.4960507746, 187500.0, 0.032, -0.008, 1.0, 192.0, 0.0, 0.0, 0.0, 0.0, 0.0, 0.0, 0.0, 0.0, 0.0, 1.689602695093205E9, 0.0, 2023-07-17 16:04:55.093
130.0, -175765.0882917748, -180306.13575054833, -177719.16719903555, -177340.39453749591, -180566.37711124148, -182021.8109514488, -184474.84785018538, 187500.0, 0.032, -0.008, 1.0, 192.0, 0.0, 0.0, 0.0, 0.0, 0.0, 0.0, 0.0, 0.0, 0.0, 1.6896026950932279E9, 0.0, 2023-07-17 16:04:55.093
131.0, -175784.82488212883, -180317.19986405372, -177721.42472522554, -177354.83376441407, -180574.84842239006, -182018.94992815852, -184478.42412929825, 187500.0, 0.032, -0.008, 1.0, 192.0, 0.0, 0.0, 0.0, 0.0, 0.0, 0.0, 0.0, 0.0, 0.0, 1.6896026950932505E9, 0.0, 2023-07-17 16:04:55.093
132.0, -175777.76173088094, -180346.97238766818, -177746.97276913797, -177349.84932540052, -180566.17594554138, -182037.9265592011, -184476.27836183054, 187500.0, 0.032, -0.008, 1.0, 192.0, 0.0, 0.0, 0.0, 0.0, 0.0, 0.0, 0.0, 0.0, 0.0, 1.6896026950932727E9, 0.0, 2023-07-17 16:04:55.093
133.0, -175780.95803033808, -180365.94901871076, -177757.4557372875, -177333.68901415935, -180554.17305876888, -182051.53877157436, -184507.12376917884, 187500.0, 0.032, -0.008, 1.0, 192.0, 0.0, 0.0, 0.0, 0.0, 0.0, 0.0, 0.0, 0.0, 0.0, 1.6896026950932944E9, 0.0, 2023-07-17 16:04:55.093
134.0, -175774.7442453795, -180359.5117163076, -177760.6520367446, -177319.94269131933, -180531.1731137244, -182053.59513206425, -184502.42990284323, 187500.0, 0.032, -0.008, 1.0, 192.0, 0.0, 0.0, 0.0, 0.0, 0.0, 0.0, 0.0, 0.0, 0.0, 1.6896026950933163E9, 0.0, 2023-07-17 16:04:55.093
135.0, -175754.4265096696, -180338.27755907507, -177722.34114674822, -177323.42956345435, -180538.4150789279, -182058.64662631115, -184490.047036415, 187500.0, 0.032, -0.008, 1.0, 192.0, 0.0, 0.0, 0.0, 0.0, 0.0, 0.0, 0.0, 0.0, 0.0, 1.689602695093338E9, 0.0, 2023-07-17 16:04:55.093
136.0, -175767.21170749806, -180317.7586576651, -177713.13222803263, -177320.27796748615, -180543.84655283054, -182044.18504764856, -184488.5941730254, 187500.0, 0.032, -0.008, 1.0, 192.0, 0.0, 0.0, 0.0, 0.0, 0.0, 0.0, 0.0, 0.0, 0.0, 1.6896026950933604E9, 0.0, 2023-07-17 16:04:55.093
137.0, -175784.10962630625, -180309.93554710574, -177708.12543727463, -177320.47913318625, -180544.80767784212, -182026.72833522898, -184486.71662649116, 187500.0, 0.032, -0.008, 1.0, 192.0, 0.0, 0.0, 0.0, 0.0, 0.0, 0.0, 0.0, 0.0, 0.0, 1.6896026950933826E9, 0.0, 2023-07-17 16:04:55.093
138.0, -175759.25448647197, -180327.6157769699, -177718.36253623516, -177353.5150114912, -180572.3673787555, -182022.68266948257, -184499.03243768602, 187500.0, 0.034, -0.012, 1.004, 192.0, 1.0, 16.0, 255.0, 160.0, 31.0, 96.0, 0.0, 0.0, 0.0, 1.6896026950934048E9, 0.0, 2023-07-17 16:04:55.093
139.0, -175758.89685856068, -180314.24943378562, -177710.36061172016, -177346.69772943232, -180567.58410544207, -182032.85271320972, -184498.16071965228, 187500.0, 0.034, -0.012, 1.004, 192.0, 0.0, 0.0, 0.0, 0.0, 0.0, 0.0, 0.0, 0.0, 0.0, 1.6896026950934267E9, 0.0, 2023-07-17 16:04:55.093
140.0, -175734.80167803785, -180316.12698031988, -177706.6949256295, -177352.3527207795, -180572.45678573332, -182050.89057098515, -184493.288039361, 187500.0, 0.034, -0.012, 1.004, 192.0, 0.0, 0.0, 0.0, 0.0, 0.0, 0.0, 0.0, 0.0, 0.0, 1.6896026950934494E9, 0.0, 2023-07-17 16:04:55.093
141.0, -175707.5325498024, -180313.1541983073, -177685.95250677498, -177361.00284588372, -180595.21086158883, -182028.29295734083, -184494.02564692803, 187500.0, 0.034, -0.012, 1.004, 192.0, 0.0, 0.0, 0.0, 0.0, 0.0, 0.0, 0.0, 0.0, 0.0, 1.6896026950934713E9, 0.0, 2023-07-17 16:04:55.093
142.0, -175751.81135556835, -180325.80528566902, -177722.54231244832, -177359.3711685385, -180607.05728615014, -182055.78560302086, -184518.38904838433, 187500.0, 0.034, -0.012, 1.004, 192.0, 0.0, 0.0, 0.0, 0.0, 0.0, 0.0, 0.0, 0.0, 0.0, 1.6896026950934937E9, 0.0, 2023-07-17 16:04:55.093
143.0, -175652.4578514645, -180332.0637741165, -177705.5549866623, -177360.48875576124, -180659.36036817555, -182073.26466718494, -184519.77485654055, 187500.0, 0.034, -0.012, 1.004, 192.0, 0.0, 0.0, 0.0, 0.0, 0.0, 0.0, 0.0, 0.0, 0.0, 1.689602695093516E9, 0.0, 2023-07-17 16:04:55.093
144.0, -175672.21679356298, -180314.74117216363, -177733.71818467596, -177333.53255194816, -180640.89782725548, -182094.49882441747, -184521.02655423005, 187500.0, 0.034, -0.012, 1.004, 192.0, 0.0, 0.0, 0.0, 0.0, 0.0, 0.0, 0.0, 0.0, 0.0, 1.689602695093538E9, 0.0, 2023-07-17 16:04:55.093
145.0, -175602.88168226264, -180321.53610247804, -177730.38777475213, -177333.1525722924, -180676.68297012843, -182113.45310371555, -184519.551339096, 187500.0, 0.034, -0.012, 1.004, 192.0, 0.0, 0.0, 0.0, 0.0, 0.0, 0.0, 0.0, 0.0, 0.0, 1.6896026950935605E9, 0.0, 2023-07-17 16:04:55.093
146.0, -175639.13621176913, -180308.1027040604, -177725.71626016096, -177310.13027550344, -180658.0416152527, -182119.0857433183, -184505.08976043342, 187500.0, 0.034, -0.012, 1.004, 192.0, 0.0, 0.0, 0.0, 0.0, 0.0, 0.0, 0.0, 0.0, 0.0, 1.6896026950935826E9, 0.0, 2023-07-17 16:04:55.093
147.0, -175657.48699396694, -180311.6566314288, -177719.7036409025, -177324.74831637723, -180662.02022576574, -182132.42973475813, -184494.56208879498, 187500.0, 0.034, -0.012, 1.004, 192.0, 0.0, 0.0, 0.0, 0.0, 0.0, 0.0, 0.0, 0.0, 0.0, 1.689602695093605E9, 0.0, 2023-07-17 16:04:55.093
148.0, -175652.27903750885, -180302.73828539113, -177703.6997918725, -177335.67831941586, -180677.08530152863, -182150.4452407891, -184496.9537254517, 187500.0, 0.03, -0.01, 1.008, 192.0, 0.0, 240.0, 255.0, 176.0, 31.0, 128.0, 0.0, 0.0, 0.0, 1.6896026950936291E9, 0.0, 2023-07-17 16:04:55.093
149.0, -175646.48993569493, -180285.88507007185, -177700.7046581155, -177318.53453141864, -180637.85799000956, -182139.80581042837, -184487.297771847, 187500.0, 0.03, -0.01, 1.008, 192.0, 0.0, 0.0, 0.0, 0.0, 0.0, 0.0, 0.0, 0.0, 0.0, 1.6896026950936525E9, 0.0, 2023-07-17 16:04:55.093
150.0, -175634.7999733448, -180302.6041749244, -177720.41889672505, -177316.99226105123, -180630.0795829391, -182143.24797907448, -184506.6096790564, 187500.0, 0.03, -0.01, 1.008, 192.0, 0.0, 0.0, 0.0, 0.0, 0.0, 0.0, 0.0, 0.0, 0.0, 1.6896026950936751E9, 0.0, 2023-07-17 16:04:55.093
151.0, -175668.43934875005, -180319.47974198815, -177740.8483911572, -177302.351868433, -180610.52180654072, -182147.8300866878, -184545.3005487085, 187500.0, 0.03, -0.01, 1.008, 192.0, 0.0, 0.0, 0.0, 0.0, 0.0, 0.0, 0.0, 0.0, 0.0, 1.689602695093698E9, 0.0, 2023-07-17 16:04:55.093
152.0, -175653.77660438736, -180333.62839622836, -177750.43728952855, -177305.4587609123, -180603.05632389264, -182134.30728129236, -184535.91281603728, 187500.0, 0.03, -0.01, 1.008, 192.0, 0.0, 0.0, 0.0, 0.0, 0.0, 0.0, 0.0, 0.0, 0.0, 1.6896026950937204E9, 0.0, 2023-07-17 16:04:55.093
153.0, -175651.0049880749, -180315.83640764194, -177721.49178045892, -177302.105999244, -180602.74339947026, -182138.0847261053, -184524.3569641539, 187500.0, 0.03, -0.01, 1.008, 192.0, 0.0, 0.0, 0.0, 0.0, 0.0, 0.0, 0.0, 0.0, 0.0, 1.689602695093743E9, 0.0, 2023-07-17 16:04:55.093
154.0, -175669.66869469508, -180309.82378838348, -177741.56364697978, -177318.13220001844, -180585.5772597286, -182148.1877145991, -184537.49978989363, 187500.0, 0.03, -0.01, 1.008, 192.0, 0.0, 0.0, 0.0, 0.0, 0.0, 0.0, 0.0, 0.0, 0.0, 1.689602695093766E9, 0.0, 2023-07-17 16:04:55.093
155.0, -175630.5531418983, -180277.48081415665, -177749.02912962786, -177309.37031619195, -180577.10594858002, -182122.55026370886, -184554.2635982351, 187500.0, 0.03, -0.01, 1.008, 192.0, 0.0, 0.0, 0.0, 0.0, 0.0, 0.0, 0.0, 0.0, 0.0, 1.6896026950937889E9, 0.0, 2023-07-17 16:04:55.093
156.0, -175670.04867435084, -180278.75486359058, -177772.6549235171, -177321.70847913128, -180558.0175588152, -182126.01478409945, -184578.15761305782, 187500.0, 0.03, -0.01, 1.008, 192.0, 0.0, 0.0, 0.0, 0.0, 0.0, 0.0, 0.0, 0.0, 0.0, 1.6896026950938113E9, 0.0, 2023-07-17 16:04:55.093
