%OpenBCI Raw EXG Data
%Number of channels = 8
%Sample Rate = 250 Hz
%Board = OpenBCI_GUI$BoardCytonSerial
Sample Index, EXG Channel 0, EXG Channel 1, EXG Channel 2, EXG Channel 3, EXG Channel 4, EXG Channel 5, EXG Channel 6, EXG Channel 7, Accel Channel 0, Accel Channel 1, Accel Channel 2, Other, Other, Other, Other, Other, Other, Other, Analog Channel 0, Analog Channel 1, Analog Channel 2, Timestamp, Other, Timestamp (Formatted)
0.0, 0.0, 0.0, 0.0, 0.0, 0.0, 0.0, 0.0, 0.0, 0.036000000000000004, -0.02, 1.004, 192.0, 1.0, 32.0, 255.0, 96.0, 31.0, 96.0, 0.0, 0.0, 0.0, 1.689599426334752E9, 0.0, 2023-07-17 15:10:26.334
1.0, -101.56632680491529, 187500.0, 187500.0, 187500.0, 187500.0, 187500.0, 187500.0, 187500.0, 0.036000000000000004, -0.02, 1.004, 192.0, 0.0, 0.0, 0.0, 0.0, 0.0, 0.0, 0.0, 0.0, 0.0, 1.6895994268180542E9, 0.0, 2023-07-17 15:10:26.818
2.0, -92.02213192249917, 187500.0, 187500.0, 187500.0, 187500.0, 187500.0, 187500.0, 187500.0, 0.036000000000000004, -0.02, 1.004, 192.0, 0.0, 0.0, 0.0, 0.0, 0.0, 0.0, 0.0, 0.0, 0.0, 1.6895994268181665E9, 0.0, 2023-07-17 15:10:26.818
3.0, -96.00074243554383, 187500.0, 187500.0, 187500.0, 187500.0, 187500.0, 187500.0, 187500.0, 0.036000000000000004, -0.02, 1.004, 192.0, 0.0, 0.0, 0.0, 0.0, 0.0, 0.0, 0.0, 0.0, 0.0, 1.6895994268182588E9, 0.0, 2023-07-17 15:10:26.818
4.0, -109.1659199197197, 187500.0, 187500.0, 187500.0, 187500.0, 187500.0, 187500.0, 187500.0, 0.036000000000000004, -0.02, 1.004, 192.0, 0.0, 0.0, 0.0, 0.0, 0.0, 0.0, 0.0, 0.0, 0.0, 1.6895994268183057E9, 0.0, 2023-07-17 15:10:26.818
5.0, -113.07747519939844, 187500.0, 187500.0, 187500.0, 187500.0, 187500.0, 187500.0, 187500.0, 0.036000000000000004, -0.02, 1.004, 192.0, 0.0, 0.0, 0.0, 0.0, 0.0, 0.0, 0.0, 0.0, 0.0, 1.689599426818355E9, 0.0, 2023-07-17 15:10:26.818
6.0, -102.01336169402144, 187500.0, 187500.0, 187500.0, 187500.0, 187500.0, 187500.0, 187500.0, 0.036000000000000004, -0.02, 1.004, 192.0, 0.0, 0.0, 0.0, 0.0, 0.0, 0.0, 0.0, 0.0, 0.0, 1.689599426818405E9, 0.0, 2023-07-17 15:10:26.818
7.0, -91.35157958883997, 187500.0, 187500.0, 187500.0, 187500.0, 187500.0, 187500.0, 187500.0, 0.036000000000000004, -0.02, 1.004, 192.0, 0.0, 0.0, 0.0, 0.0, 0.0, 0.0, 0.0, 0.0, 0.0, 1.6895994268184524E9, 0.0, 2023-07-17 15:10:26.818
8.0, -95.64311452425892, 187500.0, 187500.0, 187500.0, 187500.0, 187500.0, 187500.0, 187500.0, 0.04, -0.018000000000000002, 1.004, 192.0, 1.0, 64.0, 255.0, 112.0, 31.0, 96.0, 0.0, 0.0, 0.0, 1.6895994268185005E9, 0.0, 2023-07-17 15:10:26.818
9.0, -109.34473387536215, 187500.0, 187500.0, 187500.0, 187500.0, 187500.0, 187500.0, 187500.0, 0.04, -0.018000000000000002, 1.004, 192.0, 0.0, 0.0, 0.0, 0.0, 0.0, 0.0, 0.0, 0.0, 0.0, 1.6895994268185544E9, 0.0, 2023-07-17 15:10:26.818
10.0, -113.56921357741518, 187500.0, 187500.0, 187500.0, 187500.0, 187500.0, 187500.0, 187500.0, 0.04, -0.018000000000000002, 1.004, 192.0, 0.0, 0.0, 0.0, 0.0, 0.0, 0.0, 0.0, 0.0, 0.0, 1.6895994268186064E9, 0.0, 2023-07-17 15:10:26.818
11.0, -102.30393437194043, 187500.0, 187500.0, 187500.0, 187500.0, 187500.0, 187500.0, 187500.0, 0.04, -0.018000000000000002, 1.004, 192.0, 0.0, 0.0, 0.0, 0.0, 0.0, 0.0, 0.0, 0.0, 0.0, 1.689599426818658E9, 0.0, 2023-07-17 15:10:26.818
12.0, -91.99978017804386, 187500.0, 187500.0, 187500.0, 187500.0, 187500.0, 187500.0, 187500.0, 0.04, -0.018000000000000002, 1.004, 192.0, 0.0, 0.0, 0.0, 0.0, 0.0, 0.0, 0.0, 0.0, 0.0, 1.6895994268187096E9, 0.0, 2023-07-17 15:10:26.818
13.0, -96.26896336900752, 187500.0, 187500.0, 187500.0, 187500.0, 187500.0, 187500.0, 187500.0, 0.04, -0.018000000000000002, 1.004, 192.0, 0.0, 0.0, 0.0, 0.0, 0.0, 0.0, 0.0, 0.0, 0.0, 1.6895994268187623E9, 0.0, 2023-07-17 15:10:26.818
14.0, -109.32238213090685, 187500.0, 187500.0, 187500.0, 187500.0, 187500.0, 187500.0, 187500.0, 0.04, -0.018000000000000002, 1.004, 192.0, 0.0, 0.0, 0.0, 0.0, 0.0, 0.0, 0.0, 0.0, 0.0, 1.689599426818814E9, 0.0, 2023-07-17 15:10:26.818
15.0, -113.01041996603252, 187500.0, 187500.0, 187500.0, 187500.0, 187500.0, 187500.0, 187500.0, 0.04, -0.018000000000000002, 1.004, 192.0, 0.0, 0.0, 0.0, 0.0, 0.0, 0.0, 0.0, 0.0, 0.0, 1.6895994268188665E9, 0.0, 2023-07-17 15:10:26.818
16.0, -102.01336169402144, 187500.0, 187500.0, 187500.0, 187500.0, 187500.0, 187500.0, 187500.0, 0.04, -0.018000000000000002, 1.004, 192.0, 0.0, 0.0, 0.0, 0.0, 0.0, 0.0, 0.0, 0.0, 0.0, 1.6895994268197813E9, 0.0, 2023-07-17 15:10:26.819
17.0, -91.73155924458018, 187500.0, 187500.0, 187500.0, 187500.0, 187500.0, 187500.0, 187500.0, 0.038, -0.016, 1.004, 192.0, 1.0, 48.0, 255.0, 128.0, 31.0, 96.0, 0.0, 0.0, 0.0, 1.6895994268220053E9, 0.0, 2023-07-17 15:10:26.822
18.0, -96.09014941336507, 187500.0, 187500.0, 187500.0, 187500.0, 187500.0, 187500.0, 187500.0, 0.038, -0.016, 1.004, 192.0, 0.0, 0.0, 0.0, 0.0, 0.0, 0.0, 0.0, 0.0, 0.0, 1.6895994268223863E9, 0.0, 2023-07-17 15:10:26.822
19.0, -109.5011960865493, 187500.0, 187500.0, 187500.0, 187500.0, 187500.0, 187500.0, 187500.0, 0.038, -0.016, 1.004, 192.0, 0.0, 0.0, 0.0, 0.0, 0.0, 0.0, 0.0, 0.0, 0.0, 1.6895994268224633E9, 0.0, 2023-07-17 15:10:26.822
20.0, -113.45745485513865, 187500.0, 187500.0, 187500.0, 187500.0, 187500.0, 187500.0, 187500.0, 0.038, -0.016, 1.004, 192.0, 0.0, 0.0, 0.0, 0.0, 0.0, 0.0, 0.0, 0.0, 0.0, 1.689599426822533E9, 0.0, 2023-07-17 15:10:26.822
21.0, -101.63338203828121, 187500.0, 187500.0, 187500.0, 187500.0, 187500.0, 187500.0, 187500.0, 0.038, -0.016, 1.004, 192.0, 0.0, 0.0, 0.0, 0.0, 0.0, 0.0, 0.0, 0.0, 0.0, 1.6895994268225908E9, 0.0, 2023-07-17 15:10:26.822
22.0, -91.4409865666612, 187500.0, 187500.0, 187500.0, 187500.0, 187500.0, 187500.0, 187500.0, 0.038, -0.016, 1.004, 192.0, 0.0, 0.0, 0.0, 0.0, 0.0, 0.0, 0.0, 0.0, 0.0, 1.6895994268226469E9, 0.0, 2023-07-17 15:10:26.822
23.0, -96.02309417999913, 187500.0, 187500.0, 187500.0, 187500.0, 187500.0, 187500.0, 187500.0, 0.038, -0.016, 1.004, 192.0, 0.0, 0.0, 0.0, 0.0, 0.0, 0.0, 0.0, 0.0, 0.0, 1.6895994268227615E9, 0.0, 2023-07-17 15:10:26.822
24.0, -109.27767864199623, 187500.0, 187500.0, 187500.0, 187500.0, 187500.0, 187500.0, 187500.0, 0.038, -0.016, 1.004, 192.0, 0.0, 0.0, 0.0, 0.0, 0.0, 0.0, 0.0, 0.0, 0.0, 1.689599426822824E9, 0.0, 2023-07-17 15:10:26.822
25.0, -113.59156532187049, 187500.0, 187500.0, 187500.0, 187500.0, 187500.0, 187500.0, 187500.0, 0.038, -0.016, 1.004, 192.0, 0.0, 0.0, 0.0, 0.0, 0.0, 0.0, 0.0, 0.0, 0.0, 1.6895994268228772E9, 0.0, 2023-07-17 15:10:26.822
26.0, -102.75096926104656, 187500.0, 187500.0, 187500.0, 187500.0, 187500.0, 187500.0, 187500.0, 0.038, -0.016, 1.004, 192.0, 0.0, 0.0, 0.0, 0.0, 0.0, 0.0, 0.0, 0.0, 0.0, 1.6895994268229227E9, 0.0, 2023-07-17 15:10:26.822
27.0, -91.61980052230365, 187500.0, 187500.0, 187500.0, 187500.0, 187500.0, 187500.0, 187500.0, 0.038, -0.016, 1.002, 192.0, 1.0, 48.0, 255.0, 128.0, 31.0, 80.0, 0.0, 0.0, 0.0, 1.6895994268229792E9, 0.0, 2023-07-17 15:10:26.822
28.0, -95.44194882416116, 187500.0, 187500.0, 187500.0, 187500.0, 187500.0, 187500.0, 187500.0, 0.038, -0.016, 1.002, 192.0, 0.0, 0.0, 0.0, 0.0, 0.0, 0.0, 0.0, 0.0, 0.0, 1.6895994268230371E9, 0.0, 2023-07-17 15:10:26.823
29.0, -108.76358851952416, 187500.0, 187500.0, 187500.0, 187500.0, 187500.0, 187500.0, 187500.0, 0.038, -0.016, 1.002, 192.0, 0.0, 0.0, 0.0, 0.0, 0.0, 0.0, 0.0, 0.0, 0.0, 1.6895994268230958E9, 0.0, 2023-07-17 15:10:26.823
30.0, -112.80925426593474, 187500.0, 187500.0, 187500.0, 187500.0, 187500.0, 187500.0, 187500.0, 0.038, -0.016, 1.002, 192.0, 0.0, 0.0, 0.0, 0.0, 0.0, 0.0, 0.0, 0.0, 0.0, 1.6895994268231475E9, 0.0, 2023-07-17 15:10:26.823
31.0, -102.14747216075328, 187500.0, 187500.0, 187500.0, 187500.0, 187500.0, 187500.0, 187500.0, 0.038, -0.016, 1.002, 192.0, 0.0, 0.0, 0.0, 0.0, 0.0, 0.0, 0.0, 0.0, 0.0, 1.6895994268235617E9, 0.0, 2023-07-17 15:10:26.823
32.0, -92.24564936705225, 187500.0, 187500.0, 187500.0, 187500.0, 187500.0, 187500.0, 187500.0, 0.038, -0.016, 1.002, 192.0, 0.0, 0.0, 0.0, 0.0, 0.0, 0.0, 0.0, 0.0, 0.0, 1.6895994268236241E9, 0.0, 2023-07-17 15:10:26.823
33.0, -96.47012906910528, 187500.0, 187500.0, 187500.0, 187500.0, 187500.0, 187500.0, 187500.0, 0.038, -0.016, 1.002, 192.0, 0.0, 0.0, 0.0, 0.0, 0.0, 0.0, 0.0, 0.0, 0.0, 1.689599426823681E9, 0.0, 2023-07-17 15:10:26.823
34.0, -109.34473387536215, 187500.0, 187500.0, 187500.0, 187500.0, 187500.0, 187500.0, 187500.0, 0.038, -0.016, 1.002, 192.0, 0.0, 0.0, 0.0, 0.0, 0.0, 0.0, 0.0, 0.0, 0.0, 1.6895994268237395E9, 0.0, 2023-07-17 15:10:26.823
35.0, -112.9657164771219, 187500.0, 187500.0, 187500.0, 187500.0, 187500.0, 187500.0, 187500.0, 0.038, -0.016, 1.002, 192.0, 0.0, 0.0, 0.0, 0.0, 0.0, 0.0, 0.0, 0.0, 0.0, 1.6895994268238003E9, 0.0, 2023-07-17 15:10:26.823
36.0, -102.30393437194043, 187500.0, 187500.0, 187500.0, 187500.0, 187500.0, 187500.0, 187500.0, 0.038, -0.016, 1.002, 192.0, 0.0, 0.0, 0.0, 0.0, 0.0, 0.0, 0.0, 0.0, 0.0, 1.6895994268238509E9, 0.0, 2023-07-17 15:10:26.823
37.0, -91.7762627334908, 187500.0, 187500.0, 187500.0, 187500.0, 187500.0, 187500.0, 187500.0, 0.034, -0.016, 1.012, 192.0, 1.0, 16.0, 255.0, 128.0, 31.0, 160.0, 0.0, 0.0, 0.0, 1.6895994268239064E9, 0.0, 2023-07-17 15:10:26.823
38.0, -96.2019081356416, 187500.0, 187500.0, 187500.0, 187500.0, 187500.0, 187500.0, 187500.0, 0.034, -0.016, 1.012, 192.0, 0.0, 0.0, 0.0, 0.0, 0.0, 0.0, 0.0, 0.0, 0.0, 1.6895994268239703E9, 0.0, 2023-07-17 15:10:26.823
39.0, -109.23297515308562, 187500.0, 187500.0, 187500.0, 187500.0, 187500.0, 187500.0, 187500.0, 0.034, -0.016, 1.012, 192.0, 0.0, 0.0, 0.0, 0.0, 0.0, 0.0, 0.0, 0.0, 0.0, 1.6895994268240309E9, 0.0, 2023-07-17 15:10:26.824
40.0, -113.70332404414702, 187500.0, 187500.0, 187500.0, 187500.0, 187500.0, 187500.0, 187500.0, 0.034, -0.016, 1.012, 192.0, 0.0, 0.0, 0.0, 0.0, 0.0, 0.0, 0.0, 0.0, 0.0, 1.689599426824082E9, 0.0, 2023-07-17 15:10:26.824
41.0, -103.4662250836164, 187500.0, 187500.0, 187500.0, 187500.0, 187500.0, 187500.0, 187500.0, 0.034, -0.016, 1.012, 192.0, 0.0, 0.0, 0.0, 0.0, 0.0, 0.0, 0.0, 0.0, 0.0, 1.6895994268241313E9, 0.0, 2023-07-17 15:10:26.824
42.0, -91.99978017804386, 187500.0, 187500.0, 187500.0, 187500.0, 187500.0, 187500.0, 187500.0, 0.034, -0.016, 1.012, 192.0, 0.0, 0.0, 0.0, 0.0, 0.0, 0.0, 0.0, 0.0, 0.0, 1.6895994268241792E9, 0.0, 2023-07-17 15:10:26.824
43.0, -95.68781801316953, 187500.0, 187500.0, 187500.0, 187500.0, 187500.0, 187500.0, 187500.0, 0.034, -0.016, 1.012, 192.0, 0.0, 0.0, 0.0, 0.0, 0.0, 0.0, 0.0, 0.0, 0.0, 1.6895994268242311E9, 0.0, 2023-07-17 15:10:26.824
44.0, -108.78594026397947, 187500.0, 187500.0, 187500.0, 187500.0, 187500.0, 187500.0, 187500.0, 0.034, -0.016, 1.012, 192.0, 0.0, 0.0, 0.0, 0.0, 0.0, 0.0, 0.0, 0.0, 0.0, 1.6895994268243084E9, 0.0, 2023-07-17 15:10:26.824
45.0, -113.36804787731742, 187500.0, 187500.0, 187500.0, 187500.0, 187500.0, 187500.0, 187500.0, 0.034, -0.016, 1.012, 192.0, 0.0, 0.0, 0.0, 0.0, 0.0, 0.0, 0.0, 0.0, 0.0, 1.6895994268243632E9, 0.0, 2023-07-17 15:10:26.824
46.0, -102.37098960530635, 187500.0, 187500.0, 187500.0, 187500.0, 187500.0, 187500.0, 187500.0, 0.034, -0.016, 1.012, 192.0, 0.0, 0.0, 0.0, 0.0, 0.0, 0.0, 0.0, 0.0, 0.0, 1.6895994268244214E9, 0.0, 2023-07-17 15:10:26.824
47.0, -91.32922784438466, 187500.0, 187500.0, 187500.0, 187500.0, 187500.0, 187500.0, 187500.0, 0.036000000000000004, -0.016, 1.004, 192.0, 1.0, 32.0, 255.0, 128.0, 31.0, 96.0, 0.0, 0.0, 0.0, 1.6895994268247845E9, 0.0, 2023-07-17 15:10:26.824
48.0, -95.17372789069748, 187500.0, 187500.0, 187500.0, 187500.0, 187500.0, 187500.0, 187500.0, 0.036000000000000004, -0.016, 1.004, 192.0, 0.0, 0.0, 0.0, 0.0, 0.0, 0.0, 0.0, 0.0, 0.0, 1.6895994268248796E9, 0.0, 2023-07-17 15:10:26.824
49.0, -108.04833269695435, 187500.0, 187500.0, 187500.0, 187500.0, 187500.0, 187500.0, 187500.0, 0.036000000000000004, -0.016, 1.004, 192.0, 0.0, 0.0, 0.0, 0.0, 0.0, 0.0, 0.0, 0.0, 0.0, 1.6895994268249626E9, 0.0, 2023-07-17 15:10:26.824
50.0, -113.07747519939844, 187500.0, 187500.0, 187500.0, 187500.0, 187500.0, 187500.0, 187500.0, 0.036000000000000004, -0.016, 1.004, 192.0, 0.0, 0.0, 0.0, 0.0, 0.0, 0.0, 0.0, 0.0, 0.0, 1.6895994268250575E9, 0.0, 2023-07-17 15:10:26.825
51.0, -102.70626577213595, 187500.0, 187500.0, 187500.0, 187500.0, 187500.0, 187500.0, 187500.0, 0.036000000000000004, -0.016, 1.004, 192.0, 0.0, 0.0, 0.0, 0.0, 0.0, 0.0, 0.0, 0.0, 0.0, 1.6895994268251293E9, 0.0, 2023-07-17 15:10:26.825
52.0, -91.88802145576733, 187500.0, 187500.0, 187500.0, 187500.0, 187500.0, 187500.0, 187500.0, 0.036000000000000004, -0.016, 1.004, 192.0, 0.0, 0.0, 0.0, 0.0, 0.0, 0.0, 0.0, 0.0, 0.0, 1.6895994268252003E9, 0.0, 2023-07-17 15:10:26.825
53.0, -95.64311452425892, 187500.0, 187500.0, 187500.0, 187500.0, 187500.0, 187500.0, 187500.0, 0.036000000000000004, -0.016, 1.004, 192.0, 0.0, 0.0, 0.0, 0.0, 0.0, 0.0, 0.0, 0.0, 0.0, 1.689599426825282E9, 0.0, 2023-07-17 15:10:26.825
54.0, -107.82481525240127, 187500.0, 187500.0, 187500.0, 187500.0, 187500.0, 187500.0, 187500.0, 0.036000000000000004, -0.016, 1.004, 192.0, 0.0, 0.0, 0.0, 0.0, 0.0, 0.0, 0.0, 0.0, 0.0, 1.689599426825363E9, 0.0, 2023-07-17 15:10:26.825
55.0, -113.07747519939844, 187500.0, 187500.0, 187500.0, 187500.0, 187500.0, 187500.0, 187500.0, 0.036000000000000004, -0.016, 1.004, 192.0, 0.0, 0.0, 0.0, 0.0, 0.0, 0.0, 0.0, 0.0, 0.0, 1.6895994268254323E9, 0.0, 2023-07-17 15:10:26.825
56.0, -102.61685879431472, 187500.0, 187500.0, 187500.0, 187500.0, 187500.0, 187500.0, 187500.0, 0.036000000000000004, -0.016, 1.004, 192.0, 0.0, 0.0, 0.0, 0.0, 0.0, 0.0, 0.0, 0.0, 0.0, 1.6895994268254793E9, 0.0, 2023-07-17 15:10:26.825
57.0, -91.68685575566957, 187500.0, 187500.0, 187500.0, 187500.0, 187500.0, 187500.0, 187500.0, 0.032, -0.016, 1.004, 192.0, 1.0, 0.0, 255.0, 128.0, 31.0, 96.0, 0.0, 0.0, 0.0, 1.6895994268255343E9, 0.0, 2023-07-17 15:10:26.825
58.0, -95.12902440178686, 187500.0, 187500.0, 187500.0, 187500.0, 187500.0, 187500.0, 187500.0, 0.032, -0.016, 1.004, 192.0, 0.0, 0.0, 0.0, 0.0, 0.0, 0.0, 0.0, 0.0, 0.0, 1.6895994268255937E9, 0.0, 2023-07-17 15:10:26.825
59.0, -108.16009141923088, 187500.0, 187500.0, 187500.0, 187500.0, 187500.0, 187500.0, 187500.0, 0.032, -0.016, 1.004, 192.0, 0.0, 0.0, 0.0, 0.0, 0.0, 0.0, 0.0, 0.0, 0.0, 1.6895994268256383E9, 0.0, 2023-07-17 15:10:26.825
60.0, -113.18923392167497, 187500.0, 187500.0, 187500.0, 187500.0, 187500.0, 187500.0, 187500.0, 0.032, -0.016, 1.004, 192.0, 0.0, 0.0, 0.0, 0.0, 0.0, 0.0, 0.0, 0.0, 0.0, 1.6895994268256826E9, 0.0, 2023-07-17 15:10:26.825
61.0, -102.32628611639574, 187500.0, 187500.0, 187500.0, 187500.0, 187500.0, 187500.0, 187500.0, 0.032, -0.016, 1.004, 192.0, 0.0, 0.0, 0.0, 0.0, 0.0, 0.0, 0.0, 0.0, 0.0, 1.6895994268257349E9, 0.0, 2023-07-17 15:10:26.825
62.0, -91.35157958883997, 187500.0, 187500.0, 187500.0, 187500.0, 187500.0, 187500.0, 187500.0, 0.032, -0.016, 1.004, 192.0, 0.0, 0.0, 0.0, 0.0, 0.0, 0.0, 0.0, 0.0, 0.0, 1.689599426826045E9, 0.0, 2023-07-17 15:10:26.826
63.0, -95.55370754643769, 187500.0, 187500.0, 187500.0, 187500.0, 187500.0, 187500.0, 187500.0, 0.032, -0.016, 1.004, 192.0, 0.0, 0.0, 0.0, 0.0, 0.0, 0.0, 0.0, 0.0, 0.0, 1.6895994268261044E9, 0.0, 2023-07-17 15:10:26.826
64.0, -109.05416119744316, 187500.0, 187500.0, 187500.0, 187500.0, 187500.0, 187500.0, 187500.0, 0.032, -0.016, 1.004, 192.0, 0.0, 0.0, 0.0, 0.0, 0.0, 0.0, 0.0, 0.0, 0.0, 1.6895994268261595E9, 0.0, 2023-07-17 15:10:26.826
65.0, -113.54686183295988, 187500.0, 187500.0, 187500.0, 187500.0, 187500.0, 187500.0, 187500.0, 0.032, -0.016, 1.004, 192.0, 0.0, 0.0, 0.0, 0.0, 0.0, 0.0, 0.0, 0.0, 0.0, 1.6895994268262253E9, 0.0, 2023-07-17 15:10:26.826
66.0, -103.08624542787618, 187500.0, 187500.0, 187500.0, 187500.0, 187500.0, 187500.0, 187500.0, 0.032, -0.016, 1.004, 192.0, 0.0, 0.0, 0.0, 0.0, 0.0, 0.0, 0.0, 0.0, 0.0, 1.6895994268262744E9, 0.0, 2023-07-17 15:10:26.826
67.0, -92.11153890032041, 187500.0, 187500.0, 187500.0, 187500.0, 187500.0, 187500.0, 187500.0, 0.04, -0.02, 1.0, 192.0, 1.0, 64.0, 255.0, 96.0, 31.0, 64.0, 0.0, 0.0, 0.0, 1.6895994268263187E9, 0.0, 2023-07-17 15:10:26.826
68.0, -95.30783835742932, 187500.0, 187500.0, 187500.0, 187500.0, 187500.0, 187500.0, 187500.0, 0.04, -0.02, 1.0, 192.0, 0.0, 0.0, 0.0, 0.0, 0.0, 0.0, 0.0, 0.0, 0.0, 1.6895994268263652E9, 0.0, 2023-07-17 15:10:26.826
69.0, -108.62947805279232, 187500.0, 187500.0, 187500.0, 187500.0, 187500.0, 187500.0, 187500.0, 0.04, -0.02, 1.0, 192.0, 0.0, 0.0, 0.0, 0.0, 0.0, 0.0, 0.0, 0.0, 0.0, 1.6895994268264043E9, 0.0, 2023-07-17 15:10:26.826
70.0, -113.45745485513865, 187500.0, 187500.0, 187500.0, 187500.0, 187500.0, 187500.0, 187500.0, 0.04, -0.02, 1.0, 192.0, 0.0, 0.0, 0.0, 0.0, 0.0, 0.0, 0.0, 0.0, 0.0, 1.6895994268264573E9, 0.0, 2023-07-17 15:10:26.826
71.0, -102.81802449441248, 187500.0, 187500.0, 187500.0, 187500.0, 187500.0, 187500.0, 187500.0, 0.04, -0.02, 1.0, 192.0, 0.0, 0.0, 0.0, 0.0, 0.0, 0.0, 0.0, 0.0, 0.0, 1.6895994268265097E9, 0.0, 2023-07-17 15:10:26.826
72.0, -92.02213192249917, 187500.0, 187500.0, 187500.0, 187500.0, 187500.0, 187500.0, 187500.0, 0.04, -0.02, 1.0, 192.0, 0.0, 0.0, 0.0, 0.0, 0.0, 0.0, 0.0, 0.0, 0.0, 1.6895994268265648E9, 0.0, 2023-07-17 15:10:26.826
73.0, -95.44194882416116, 187500.0, 187500.0, 187500.0, 187500.0, 187500.0, 187500.0, 187500.0, 0.04, -0.02, 1.0, 192.0, 0.0, 0.0, 0.0, 0.0, 0.0, 0.0, 0.0, 0.0, 0.0, 1.6895994268266215E9, 0.0, 2023-07-17 15:10:26.826
74.0, -108.78594026397947, 187500.0, 187500.0, 187500.0, 187500.0, 187500.0, 187500.0, 187500.0, 0.04, -0.02, 1.0, 192.0, 0.0, 0.0, 0.0, 0.0, 0.0, 0.0, 0.0, 0.0, 0.0, 1.6895994268266761E9, 0.0, 2023-07-17 15:10:26.826
75.0, -113.77037927751294, 187500.0, 187500.0, 187500.0, 187500.0, 187500.0, 187500.0, 187500.0, 0.04, -0.02, 1.0, 192.0, 0.0, 0.0, 0.0, 0.0, 0.0, 0.0, 0.0, 0.0, 0.0, 1.6895994268267238E9, 0.0, 2023-07-17 15:10:26.826
76.0, -103.4885768280717, 187500.0, 187500.0, 187500.0, 187500.0, 187500.0, 187500.0, 187500.0, 0.04, -0.02, 1.0, 192.0, 0.0, 0.0, 0.0, 0.0, 0.0, 0.0, 0.0, 0.0, 0.0, 1.6895994268267777E9, 0.0, 2023-07-17 15:10:26.826
77.0, -91.99978017804386, 187500.0, 187500.0, 187500.0, 187500.0, 187500.0, 187500.0, 187500.0, 0.038, -0.018000000000000002, 1.004, 192.0, 1.0, 48.0, 255.0, 112.0, 31.0, 96.0, 0.0, 0.0, 0.0, 1.6895994268269136E9, 0.0, 2023-07-17 15:10:26.826
78.0, -95.53135580198239, 187500.0, 187500.0, 187500.0, 187500.0, 187500.0, 187500.0, 187500.0, 0.038, -0.018000000000000002, 1.004, 192.0, 0.0, 0.0, 0.0, 0.0, 0.0, 0.0, 0.0, 0.0, 0.0, 1.6895994268269727E9, 0.0, 2023-07-17 15:10:26.826
79.0, -108.33890537487333, 187500.0, 187500.0, 187500.0, 187500.0, 187500.0, 187500.0, 187500.0, 0.038, -0.018000000000000002, 1.004, 192.0, 0.0, 0.0, 0.0, 0.0, 0.0, 0.0, 0.0, 0.0, 0.0, 1.689599426827026E9, 0.0, 2023-07-17 15:10:26.827
80.0, -113.97154497761072, 187500.0, 187500.0, 187500.0, 187500.0, 187500.0, 187500.0, 187500.0, 0.038, -0.018000000000000002, 1.004, 192.0, 0.0, 0.0, 0.0, 0.0, 0.0, 0.0, 0.0, 0.0, 0.0, 1.689599426827078E9, 0.0, 2023-07-17 15:10:26.827
81.0, -103.62268729480354, 187500.0, 187500.0, 187500.0, 187500.0, 187500.0, 187500.0, 187500.0, 0.038, -0.018000000000000002, 1.004, 192.0, 0.0, 0.0, 0.0, 0.0, 0.0, 0.0, 0.0, 0.0, 0.0, 1.6895994268271296E9, 0.0, 2023-07-17 15:10:26.827
82.0, -92.04448366695448, 187500.0, 187500.0, 187500.0, 187500.0, 187500.0, 187500.0, 187500.0, 0.038, -0.018000000000000002, 1.004, 192.0, 0.0, 0.0, 0.0, 0.0, 0.0, 0.0, 0.0, 0.0, 0.0, 1.6895994268271856E9, 0.0, 2023-07-17 15:10:26.827
83.0, -95.64311452425892, 187500.0, 187500.0, 187500.0, 187500.0, 187500.0, 187500.0, 187500.0, 0.038, -0.018000000000000002, 1.004, 192.0, 0.0, 0.0, 0.0, 0.0, 0.0, 0.0, 0.0, 0.0, 0.0, 1.6895994268272393E9, 0.0, 2023-07-17 15:10:26.827
84.0, -108.31655363041803, 187500.0, 187500.0, 187500.0, 187500.0, 187500.0, 187500.0, 187500.0, 0.038, -0.018000000000000002, 1.004, 192.0, 0.0, 0.0, 0.0, 0.0, 0.0, 0.0, 0.0, 0.0, 0.0, 1.689599426827287E9, 0.0, 2023-07-17 15:10:26.827
85.0, -112.9657164771219, 187500.0, 187500.0, 187500.0, 187500.0, 187500.0, 187500.0, 187500.0, 0.038, -0.018000000000000002, 1.004, 192.0, 0.0, 0.0, 0.0, 0.0, 0.0, 0.0, 0.0, 0.0, 0.0, 1.689599426827333E9, 0.0, 2023-07-17 15:10:26.827
86.0, -103.13094891678679, 187500.0, 187500.0, 187500.0, 187500.0, 187500.0, 187500.0, 187500.0, 0.038, -0.018000000000000002, 1.004, 192.0, 0.0, 0.0, 0.0, 0.0, 0.0, 0.0, 0.0, 0.0, 0.0, 1.6895994268273835E9, 0.0, 2023-07-17 15:10:26.827
87.0, -91.91037320022264, 187500.0, 187500.0, 187500.0, 187500.0, 187500.0, 187500.0, 187500.0, 0.038, -0.02, 1.004, 192.0, 1.0, 48.0, 255.0, 96.0, 31.0, 96.0, 0.0, 0.0, 0.0, 1.6895994268274436E9, 0.0, 2023-07-17 15:10:26.827
88.0, -95.41959707970585, 187500.0, 187500.0, 187500.0, 187500.0, 187500.0, 187500.0, 187500.0, 0.038, -0.02, 1.004, 192.0, 0.0, 0.0, 0.0, 0.0, 0.0, 0.0, 0.0, 0.0, 0.0, 1.6895994268275003E9, 0.0, 2023-07-17 15:10:26.827
89.0, -108.47301584160518, 187500.0, 187500.0, 187500.0, 187500.0, 187500.0, 187500.0, 187500.0, 0.038, -0.02, 1.004, 192.0, 0.0, 0.0, 0.0, 0.0, 0.0, 0.0, 0.0, 0.0, 0.0, 1.6895994268275557E9, 0.0, 2023-07-17 15:10:26.827
90.0, -113.41275136622804, 187500.0, 187500.0, 187500.0, 187500.0, 187500.0, 187500.0, 187500.0, 0.038, -0.02, 1.004, 192.0, 0.0, 0.0, 0.0, 0.0, 0.0, 0.0, 0.0, 0.0, 0.0, 1.6895994268276088E9, 0.0, 2023-07-17 15:10:26.827
91.0, -103.01919019451026, 187500.0, 187500.0, 187500.0, 187500.0, 187500.0, 187500.0, 187500.0, 0.038, -0.02, 1.004, 192.0, 0.0, 0.0, 0.0, 0.0, 0.0, 0.0, 0.0, 0.0, 0.0, 1.6895994268276627E9, 0.0, 2023-07-17 15:10:26.827
92.0, -91.66450401121426, 187500.0, 187500.0, 187500.0, 187500.0, 187500.0, 187500.0, 187500.0, 0.038, -0.02, 1.004, 192.0, 0.0, 0.0, 0.0, 0.0, 0.0, 0.0, 0.0, 0.0, 0.0, 1.6895994268277159E9, 0.0, 2023-07-17 15:10:26.827
93.0, -94.90550695723378, 187500.0, 187500.0, 187500.0, 187500.0, 187500.0, 187500.0, 187500.0, 0.038, -0.02, 1.004, 192.0, 0.0, 0.0, 0.0, 0.0, 0.0, 0.0, 0.0, 0.0, 0.0, 1.689599426827825E9, 0.0, 2023-07-17 15:10:26.827
94.0, -108.58477456388171, 187500.0, 187500.0, 187500.0, 187500.0, 187500.0, 187500.0, 187500.0, 0.038, -0.02, 1.004, 192.0, 0.0, 0.0, 0.0, 0.0, 0.0, 0.0, 0.0, 0.0, 0.0, 1.6895994268278768E9, 0.0, 2023-07-17 15:10:26.827
95.0, -113.45745485513865, 187500.0, 187500.0, 187500.0, 187500.0, 187500.0, 187500.0, 187500.0, 0.038, -0.02, 1.004, 192.0, 0.0, 0.0, 0.0, 0.0, 0.0, 0.0, 0.0, 0.0, 0.0, 1.689599426827932E9, 0.0, 2023-07-17 15:10:26.827
96.0, -103.62268729480354, 187500.0, 187500.0, 187500.0, 187500.0, 187500.0, 187500.0, 187500.0, 0.038, -0.02, 1.004, 192.0, 0.0, 0.0, 0.0, 0.0, 0.0, 0.0, 0.0, 0.0, 0.0, 1.6895994268279865E9, 0.0, 2023-07-17 15:10:26.827
97.0, -92.02213192249917, 187500.0, 187500.0, 187500.0, 187500.0, 187500.0, 187500.0, 187500.0, 0.044, -0.018000000000000002, 1.002, 192.0, 1.0, 96.0, 255.0, 112.0, 31.0, 80.0, 0.0, 0.0, 0.0, 1.6895994268280394E9, 0.0, 2023-07-17 15:10:26.828
98.0, -94.65963776822541, 187500.0, 187500.0, 187500.0, 187500.0, 187500.0, 187500.0, 187500.0, 0.044, -0.018000000000000002, 1.002, 192.0, 0.0, 0.0, 0.0, 0.0, 0.0, 0.0, 0.0, 0.0, 0.0, 1.6895994268280945E9, 0.0, 2023-07-17 15:10:26.828
99.0, -108.38360886378395, 187500.0, 187500.0, 187500.0, 187500.0, 187500.0, 187500.0, 187500.0, 0.044, -0.018000000000000002, 1.002, 192.0, 0.0, 0.0, 0.0, 0.0, 0.0, 0.0, 0.0, 0.0, 0.0, 1.6895994268281476E9, 0.0, 2023-07-17 15:10:26.828
100.0, -113.36804787731742, 187500.0, 187500.0, 187500.0, 187500.0, 187500.0, 187500.0, 187500.0, 0.044, -0.018000000000000002, 1.002, 192.0, 0.0, 0.0, 0.0, 0.0, 0.0, 0.0, 0.0, 0.0, 0.0, 1.6895994268281996E9, 0.0, 2023-07-17 15:10:26.828
101.0, -103.71209427262477, 187500.0, 187500.0, 187500.0, 187500.0, 187500.0, 187500.0, 187500.0, 0.044, -0.018000000000000002, 1.002, 192.0, 0.0, 0.0, 0.0, 0.0, 0.0, 0.0, 0.0, 0.0, 0.0, 1.6895994268282552E9, 0.0, 2023-07-17 15:10:26.828
102.0, -92.17859413368633, 187500.0, 187500.0, 187500.0, 187500.0, 187500.0, 187500.0, 187500.0, 0.044, -0.018000000000000002, 1.002, 192.0, 0.0, 0.0, 0.0, 0.0, 0.0, 0.0, 0.0, 0.0, 0.0, 1.6895994268283093E9, 0.0, 2023-07-17 15:10:26.828
103.0, -94.99491393505501, 187500.0, 187500.0, 187500.0, 187500.0, 187500.0, 187500.0, 187500.0, 0.044, -0.018000000000000002, 1.002, 192.0, 0.0, 0.0, 0.0, 0.0, 0.0, 0.0, 0.0, 0.0, 0.0, 1.689599426828364E9, 0.0, 2023-07-17 15:10:26.828
104.0, -108.11538793032027, 187500.0, 187500.0, 187500.0, 187500.0, 187500.0, 187500.0, 187500.0, 0.044, -0.018000000000000002, 1.002, 192.0, 0.0, 0.0, 0.0, 0.0, 0.0, 0.0, 0.0, 0.0, 0.0, 1.6895994268284118E9, 0.0, 2023-07-17 15:10:26.828
105.0, -112.78690252147943, 187500.0, 187500.0, 187500.0, 187500.0, 187500.0, 187500.0, 187500.0, 0.044, -0.018000000000000002, 1.002, 192.0, 0.0, 0.0, 0.0, 0.0, 0.0, 0.0, 0.0, 0.0, 0.0, 1.68959942682846E9, 0.0, 2023-07-17 15:10:26.828
106.0, -102.8850797277784, 187500.0, 187500.0, 187500.0, 187500.0, 187500.0, 187500.0, 187500.0, 0.044, -0.018000000000000002, 1.002, 192.0, 0.0, 0.0, 0.0, 0.0, 0.0, 0.0, 0.0, 0.0, 0.0, 1.689599426828512E9, 0.0, 2023-07-17 15:10:26.828
107.0, -92.26800111150756, 187500.0, 187500.0, 187500.0, 187500.0, 187500.0, 187500.0, 187500.0, 0.042, -0.018000000000000002, 1.002, 192.0, 1.0, 80.0, 255.0, 112.0, 31.0, 80.0, 0.0, 0.0, 0.0, 1.6895994268285685E9, 0.0, 2023-07-17 15:10:26.828
108.0, -95.15137614624217, 187500.0, 187500.0, 187500.0, 187500.0, 187500.0, 187500.0, 187500.0, 0.042, -0.018000000000000002, 1.002, 192.0, 0.0, 0.0, 0.0, 0.0, 0.0, 0.0, 0.0, 0.0, 0.0, 1.6895994268286903E9, 0.0, 2023-07-17 15:10:26.828
109.0, -108.16009141923088, 187500.0, 187500.0, 187500.0, 187500.0, 187500.0, 187500.0, 187500.0, 0.042, -0.018000000000000002, 1.002, 192.0, 0.0, 0.0, 0.0, 0.0, 0.0, 0.0, 0.0, 0.0, 0.0, 1.6895994268287446E9, 0.0, 2023-07-17 15:10:26.828
110.0, -113.81508276642356, 187500.0, 187500.0, 187500.0, 187500.0, 187500.0, 187500.0, 187500.0, 0.042, -0.018000000000000002, 1.002, 192.0, 0.0, 0.0, 0.0, 0.0, 0.0, 0.0, 0.0, 0.0, 0.0, 1.6895994268287961E9, 0.0, 2023-07-17 15:10:26.828
111.0, -103.57798380589293, 187500.0, 187500.0, 187500.0, 187500.0, 187500.0, 187500.0, 187500.0, 0.042, -0.018000000000000002, 1.002, 192.0, 0.0, 0.0, 0.0, 0.0, 0.0, 0.0, 0.0, 0.0, 0.0, 1.6895994268288496E9, 0.0, 2023-07-17 15:10:26.828
112.0, -91.99978017804386, 187500.0, 187500.0, 187500.0, 187500.0, 187500.0, 187500.0, 187500.0, 0.042, -0.018000000000000002, 1.002, 192.0, 0.0, 0.0, 0.0, 0.0, 0.0, 0.0, 0.0, 0.0, 0.0, 1.6895994268289056E9, 0.0, 2023-07-17 15:10:26.828
113.0, -94.52552730149357, 187500.0, 187500.0, 187500.0, 187500.0, 187500.0, 187500.0, 187500.0, 0.042, -0.018000000000000002, 1.002, 192.0, 0.0, 0.0, 0.0, 0.0, 0.0, 0.0, 0.0, 0.0, 0.0, 1.6895994268289592E9, 0.0, 2023-07-17 15:10:26.828
114.0, -107.89187048576719, 187500.0, 187500.0, 187500.0, 187500.0, 187500.0, 187500.0, 187500.0, 0.042, -0.018000000000000002, 1.002, 192.0, 0.0, 0.0, 0.0, 0.0, 0.0, 0.0, 0.0, 0.0, 0.0, 1.6895994268290124E9, 0.0, 2023-07-17 15:10:26.829
115.0, -113.70332404414702, 187500.0, 187500.0, 187500.0, 187500.0, 187500.0, 187500.0, 187500.0, 0.042, -0.018000000000000002, 1.002, 192.0, 0.0, 0.0, 0.0, 0.0, 0.0, 0.0, 0.0, 0.0, 0.0, 1.6895994268290644E9, 0.0, 2023-07-17 15:10:26.829
116.0, -103.64503903925885, 187500.0, 187500.0, 187500.0, 187500.0, 187500.0, 187500.0, 187500.0, 0.042, -0.018000000000000002, 1.002, 192.0, 0.0, 0.0, 0.0, 0.0, 0.0, 0.0, 0.0, 0.0, 0.0, 1.6895994268291197E9, 0.0, 2023-07-17 15:10:26.829
117.0, -92.02213192249917, 187500.0, 187500.0, 187500.0, 187500.0, 187500.0, 187500.0, 187500.0, 0.036000000000000004, -0.014, 1.004, 192.0, 1.0, 32.0, 255.0, 144.0, 31.0, 96.0, 0.0, 0.0, 0.0, 1.689599426829174E9, 0.0, 2023-07-17 15:10:26.829
118.0, -95.01726567951032, 187500.0, 187500.0, 187500.0, 187500.0, 187500.0, 187500.0, 187500.0, 0.036000000000000004, -0.014, 1.004, 192.0, 0.0, 0.0, 0.0, 0.0, 0.0, 0.0, 0.0, 0.0, 0.0, 1.6895994268292334E9, 0.0, 2023-07-17 15:10:26.829
119.0, -108.27185014150741, 187500.0, 187500.0, 187500.0, 187500.0, 187500.0, 187500.0, 187500.0, 0.036000000000000004, -0.014, 1.004, 192.0, 0.0, 0.0, 0.0, 0.0, 0.0, 0.0, 0.0, 0.0, 0.0, 1.689599426829289E9, 0.0, 2023-07-17 15:10:26.829
120.0, -113.79273102196825, 187500.0, 187500.0, 187500.0, 187500.0, 187500.0, 187500.0, 187500.0, 0.036000000000000004, -0.014, 1.004, 192.0, 0.0, 0.0, 0.0, 0.0, 0.0, 0.0, 0.0, 0.0, 0.0, 1.689599426829342E9, 0.0, 2023-07-17 15:10:26.829
121.0, -103.93561171717784, 187500.0, 187500.0, 187500.0, 187500.0, 187500.0, 187500.0, 187500.0, 0.036000000000000004, -0.014, 1.004, 192.0, 0.0, 0.0, 0.0, 0.0, 0.0, 0.0, 0.0, 0.0, 0.0, 1.6895994272974756E9, 0.0, 2023-07-17 15:10:27.297
122.0, -91.50804180002712, 187500.0, 187500.0, 187500.0, 187500.0, 187500.0, 187500.0, 187500.0, 0.036000000000000004, -0.014, 1.004, 192.0, 0.0, 0.0, 0.0, 0.0, 0.0, 0.0, 0.0, 0.0, 0.0, 1.689599427297652E9, 0.0, 2023-07-17 15:10:27.297
123.0, -94.83845172386786, 187500.0, 187500.0, 187500.0, 187500.0, 187500.0, 187500.0, 187500.0, 0.036000000000000004, -0.014, 1.004, 192.0, 0.0, 0.0, 0.0, 0.0, 0.0, 0.0, 0.0, 0.0, 0.0, 1.6895994272980845E9, 0.0, 2023-07-17 15:10:27.298
124.0, -108.04833269695435, 187500.0, 187500.0, 187500.0, 187500.0, 187500.0, 187500.0, 187500.0, 0.036000000000000004, -0.014, 1.004, 192.0, 0.0, 0.0, 0.0, 0.0, 0.0, 0.0, 0.0, 0.0, 0.0, 1.689599427298155E9, 0.0, 2023-07-17 15:10:27.298
125.0, -113.36804787731742, 187500.0, 187500.0, 187500.0, 187500.0, 187500.0, 187500.0, 187500.0, 0.036000000000000004, -0.014, 1.004, 192.0, 0.0, 0.0, 0.0, 0.0, 0.0, 0.0, 0.0, 0.0, 0.0, 1.6895994272981963E9, 0.0, 2023-07-17 15:10:27.298
126.0, -103.75679776153538, 187500.0, 187500.0, 187500.0, 187500.0, 187500.0, 187500.0, 187500.0, 0.036000000000000004, -0.014, 1.004, 192.0, 0.0, 0.0, 0.0, 0.0, 0.0, 0.0, 0.0, 0.0, 0.0, 1.6895994272982368E9, 0.0, 2023-07-17 15:10:27.298
127.0, -92.4021115782394, 187500.0, 187500.0, 187500.0, 187500.0, 187500.0, 187500.0, 187500.0, 0.044, -0.016, 1.0, 192.0, 1.0, 96.0, 255.0, 128.0, 31.0, 64.0, 0.0, 0.0, 0.0, 1.6895994272982786E9, 0.0, 2023-07-17 15:10:27.298
128.0, -94.59258253485949, 187500.0, 187500.0, 187500.0, 187500.0, 187500.0, 187500.0, 187500.0, 0.044, -0.016, 1.0, 192.0, 0.0, 0.0, 0.0, 0.0, 0.0, 0.0, 0.0, 0.0, 0.0, 1.689599427298324E9, 0.0, 2023-07-17 15:10:27.298
129.0, -108.04833269695435, 187500.0, 187500.0, 187500.0, 187500.0, 187500.0, 187500.0, 187500.0, 0.044, -0.016, 1.0, 192.0, 0.0, 0.0, 0.0, 0.0, 0.0, 0.0, 0.0, 0.0, 0.0, 1.689599427298365E9, 0.0, 2023-07-17 15:10:27.298
130.0, -113.70332404414702, 187500.0, 187500.0, 187500.0, 187500.0, 187500.0, 187500.0, 187500.0, 0.044, -0.016, 1.0, 192.0, 0.0, 0.0, 0.0, 0.0, 0.0, 0.0, 0.0, 0.0, 0.0, 1.6895994272984068E9, 0.0, 2023-07-17 15:10:27.298
131.0, -104.04737043945438, 187500.0, 187500.0, 187500.0, 187500.0, 187500.0, 187500.0, 187500.0, 0.044, -0.016, 1.0, 192.0, 0.0, 0.0, 0.0, 0.0, 0.0, 0.0, 0.0, 0.0, 0.0, 1.6895994272984476E9, 0.0, 2023-07-17 15:10:27.298
132.0, -91.88802145576733, 187500.0, 187500.0, 187500.0, 187500.0, 187500.0, 187500.0, 187500.0, 0.044, -0.016, 1.0, 192.0, 0.0, 0.0, 0.0, 0.0, 0.0, 0.0, 0.0, 0.0, 0.0, 1.6895994272984896E9, 0.0, 2023-07-17 15:10:27.298
133.0, -94.65963776822541, 187500.0, 187500.0, 187500.0, 187500.0, 187500.0, 187500.0, 187500.0, 0.044, -0.016, 1.0, 192.0, 0.0, 0.0, 0.0, 0.0, 0.0, 0.0, 0.0, 0.0, 0.0, 1.6895994272985313E9, 0.0, 2023-07-17 15:10:27.298
134.0, -108.47301584160518, 187500.0, 187500.0, 187500.0, 187500.0, 187500.0, 187500.0, 187500.0, 0.044, -0.016, 1.0, 192.0, 0.0, 0.0, 0.0, 0.0, 0.0, 0.0, 0.0, 0.0, 0.0, 1.6895994272985713E9, 0.0, 2023-07-17 15:10:27.298
135.0, -113.85978625533417, 187500.0, 187500.0, 187500.0, 187500.0, 187500.0, 187500.0, 187500.0, 0.044, -0.016, 1.0, 192.0, 0.0, 0.0, 0.0, 0.0, 0.0, 0.0, 0.0, 0.0, 0.0, 1.6895994272986114E9, 0.0, 2023-07-17 15:10:27.298
136.0, -103.510928572527, 187500.0, 187500.0, 187500.0, 187500.0, 187500.0, 187500.0, 187500.0, 0.044, -0.016, 1.0, 192.0, 0.0, 0.0, 0.0, 0.0, 0.0, 0.0, 0.0, 0.0, 0.0, 1.6895994272986524E9, 0.0, 2023-07-17 15:10:27.298
137.0, -92.11153890032041, 187500.0, 187500.0, 187500.0, 187500.0, 187500.0, 187500.0, 187500.0, 0.044, -0.018000000000000002, 1.002, 192.0, 1.0, 96.0, 255.0, 112.0, 31.0, 80.0, 0.0, 0.0, 0.0, 1.6895994272986932E9, 0.0, 2023-07-17 15:10:27.298
138.0, -94.9725621905997, 187500.0, 187500.0, 187500.0, 187500.0, 187500.0, 187500.0, 187500.0, 0.044, -0.018000000000000002, 1.002, 192.0, 0.0, 0.0, 0.0, 0.0, 0.0, 0.0, 0.0, 0.0, 0.0, 1.6895994272988045E9, 0.0, 2023-07-17 15:10:27.298
139.0, -107.35542861883982, 187500.0, 187500.0, 187500.0, 187500.0, 187500.0, 187500.0, 187500.0, 0.044, -0.018000000000000002, 1.002, 192.0, 0.0, 0.0, 0.0, 0.0, 0.0, 0.0, 0.0, 0.0, 0.0, 1.689599427298846E9, 0.0, 2023-07-17 15:10:27.298
140.0, -112.85395775484535, 187500.0, 187500.0, 187500.0, 187500.0, 187500.0, 187500.0, 187500.0, 0.044, -0.018000000000000002, 1.002, 192.0, 0.0, 0.0, 0.0, 0.0, 0.0, 0.0, 0.0, 0.0, 0.0, 1.689599427298886E9, 0.0, 2023-07-17 15:10:27.298
141.0, -103.75679776153538, 187500.0, 187500.0, 187500.0, 187500.0, 187500.0, 187500.0, 187500.0, 0.044, -0.018000000000000002, 1.002, 192.0, 0.0, 0.0, 0.0, 0.0, 0.0, 0.0, 0.0, 0.0, 0.0, 1.6895994272989364E9, 0.0, 2023-07-17 15:10:27.298
142.0, -92.0891871558651, 187500.0, 187500.0, 187500.0, 187500.0, 187500.0, 187500.0, 187500.0, 0.044, -0.018000000000000002, 1.002, 192.0, 0.0, 0.0, 0.0, 0.0, 0.0, 0.0, 0.0, 0.0, 0.0, 1.689599427298978E9, 0.0, 2023-07-17 15:10:27.298
143.0, -94.70434125713602, 187500.0, 187500.0, 187500.0, 187500.0, 187500.0, 187500.0, 187500.0, 0.044, -0.018000000000000002, 1.002, 192.0, 0.0, 0.0, 0.0, 0.0, 0.0, 0.0, 0.0, 0.0, 0.0, 1.689599427299018E9, 0.0, 2023-07-17 15:10:27.299
144.0, -108.60712630833702, 187500.0, 187500.0, 187500.0, 187500.0, 187500.0, 187500.0, 187500.0, 0.044, -0.018000000000000002, 1.002, 192.0, 0.0, 0.0, 0.0, 0.0, 0.0, 0.0, 0.0, 0.0, 0.0, 1.689599427299058E9, 0.0, 2023-07-17 15:10:27.299
145.0, -113.81508276642356, 187500.0, 187500.0, 187500.0, 187500.0, 187500.0, 187500.0, 187500.0, 0.044, -0.018000000000000002, 1.002, 192.0, 0.0, 0.0, 0.0, 0.0, 0.0, 0.0, 0.0, 0.0, 0.0, 1.689599427299098E9, 0.0, 2023-07-17 15:10:27.299
146.0, -103.71209427262477, 187500.0, 187500.0, 187500.0, 187500.0, 187500.0, 187500.0, 187500.0, 0.044, -0.018000000000000002, 1.002, 192.0, 0.0, 0.0, 0.0, 0.0, 0.0, 0.0, 0.0, 0.0, 0.0, 1.689599427299137E9, 0.0, 2023-07-17 15:10:27.299
147.0, -91.73155924458018, 187500.0, 187500.0, 187500.0, 187500.0, 187500.0, 187500.0, 187500.0, 0.042, -0.018000000000000002, 1.0, 192.0, 1.0, 80.0, 255.0, 112.0, 31.0, 64.0, 0.0, 0.0, 0.0, 1.6895994272991767E9, 0.0, 2023-07-17 15:10:27.299
148.0, -95.15137614624217, 187500.0, 187500.0, 187500.0, 187500.0, 187500.0, 187500.0, 187500.0, 0.042, -0.018000000000000002, 1.0, 192.0, 0.0, 0.0, 0.0, 0.0, 0.0, 0.0, 0.0, 0.0, 0.0, 1.689599427299219E9, 0.0, 2023-07-17 15:10:27.299
149.0, -108.897698986256, 187500.0, 187500.0, 187500.0, 187500.0, 187500.0, 187500.0, 187500.0, 0.042, -0.018000000000000002, 1.0, 192.0, 0.0, 0.0, 0.0, 0.0, 0.0, 0.0, 0.0, 0.0, 0.0, 1.6895994272992573E9, 0.0, 2023-07-17 15:10:27.299
150.0, -113.79273102196825, 187500.0, 187500.0, 187500.0, 187500.0, 187500.0, 187500.0, 187500.0, 0.042, -0.018000000000000002, 1.0, 192.0, 0.0, 0.0, 0.0, 0.0, 0.0, 0.0, 0.0, 0.0, 0.0, 1.6895994272992964E9, 0.0, 2023-07-17 15:10:27.299
151.0, -103.60033555034823, 187500.0, 187500.0, 187500.0, 187500.0, 187500.0, 187500.0, 187500.0, 0.042, -0.018000000000000002, 1.0, 192.0, 0.0, 0.0, 0.0, 0.0, 0.0, 0.0, 0.0, 0.0, 0.0, 1.6895994272993355E9, 0.0, 2023-07-17 15:10:27.299
152.0, -91.7762627334908, 187500.0, 187500.0, 187500.0, 187500.0, 187500.0, 187500.0, 187500.0, 0.042, -0.018000000000000002, 1.0, 192.0, 0.0, 0.0, 0.0, 0.0, 0.0, 0.0, 0.0, 0.0, 0.0, 1.6895994272993753E9, 0.0, 2023-07-17 15:10:27.299
153.0, -94.81609997941256, 187500.0, 187500.0, 187500.0, 187500.0, 187500.0, 187500.0, 187500.0, 0.042, -0.018000000000000002, 1.0, 192.0, 0.0, 0.0, 0.0, 0.0, 0.0, 0.0, 0.0, 0.0, 0.0, 1.689599427299415E9, 0.0, 2023-07-17 15:10:27.299
154.0, -107.55659431893758, 187500.0, 187500.0, 187500.0, 187500.0, 187500.0, 187500.0, 187500.0, 0.042, -0.018000000000000002, 1.0, 192.0, 0.0, 0.0, 0.0, 0.0, 0.0, 0.0, 0.0, 0.0, 0.0, 1.6895994272995071E9, 0.0, 2023-07-17 15:10:27.299
155.0, -113.3009926439515, 187500.0, 187500.0, 187500.0, 187500.0, 187500.0, 187500.0, 187500.0, 0.042, -0.018000000000000002, 1.0, 192.0, 0.0, 0.0, 0.0, 0.0, 0.0, 0.0, 0.0, 0.0, 0.0, 1.689599427299547E9, 0.0, 2023-07-17 15:10:27.299
156.0, -104.24853613955214, 187500.0, 187500.0, 187500.0, 187500.0, 187500.0, 187500.0, 187500.0, 0.042, -0.018000000000000002, 1.0, 192.0, 0.0, 0.0, 0.0, 0.0, 0.0, 0.0, 0.0, 0.0, 0.0, 1.6895994272995863E9, 0.0, 2023-07-17 15:10:27.299
157.0, -92.51387030051593, 187500.0, 187500.0, 187500.0, 187500.0, 187500.0, 187500.0, 187500.0, 0.042, -0.02, 1.004, 192.0, 1.0, 80.0, 255.0, 96.0, 31.0, 96.0, 0.0, 0.0, 0.0, 1.6895994272996264E9, 0.0, 2023-07-17 15:10:27.299
158.0, -94.68198951268072, 187500.0, 187500.0, 187500.0, 187500.0, 187500.0, 187500.0, 187500.0, 0.042, -0.02, 1.004, 192.0, 0.0, 0.0, 0.0, 0.0, 0.0, 0.0, 0.0, 0.0, 0.0, 1.6895994272996688E9, 0.0, 2023-07-17 15:10:27.299
159.0, -107.6012978078482, 187500.0, 187500.0, 187500.0, 187500.0, 187500.0, 187500.0, 187500.0, 0.042, -0.02, 1.004, 192.0, 0.0, 0.0, 0.0, 0.0, 0.0, 0.0, 0.0, 0.0, 0.0, 1.6895994272997077E9, 0.0, 2023-07-17 15:10:27.299
160.0, -114.08330369988725, 187500.0, 187500.0, 187500.0, 187500.0, 187500.0, 187500.0, 187500.0, 0.042, -0.02, 1.004, 192.0, 0.0, 0.0, 0.0, 0.0, 0.0, 0.0, 0.0, 0.0, 0.0, 1.6895994272997468E9, 0.0, 2023-07-17 15:10:27.299
161.0, -104.65086753974767, 187500.0, 187500.0, 187500.0, 187500.0, 187500.0, 187500.0, 187500.0, 0.042, -0.02, 1.004, 192.0, 0.0, 0.0, 0.0, 0.0, 0.0, 0.0, 0.0, 0.0, 0.0, 1.6895994272997856E9, 0.0, 2023-07-17 15:10:27.299
162.0, -92.26800111150756, 187500.0, 187500.0, 187500.0, 187500.0, 187500.0, 187500.0, 187500.0, 0.042, -0.02, 1.004, 192.0, 0.0, 0.0, 0.0, 0.0, 0.0, 0.0, 0.0, 0.0, 0.0, 1.6895994272998247E9, 0.0, 2023-07-17 15:10:27.299
163.0, -94.23495462357458, 187500.0, 187500.0, 187500.0, 187500.0, 187500.0, 187500.0, 187500.0, 0.042, -0.02, 1.004, 192.0, 0.0, 0.0, 0.0, 0.0, 0.0, 0.0, 0.0, 0.0, 0.0, 1.6895994272998638E9, 0.0, 2023-07-17 15:10:27.299
164.0, -108.2271466525968, 187500.0, 187500.0, 187500.0, 187500.0, 187500.0, 187500.0, 187500.0, 0.042, -0.02, 1.004, 192.0, 0.0, 0.0, 0.0, 0.0, 0.0, 0.0, 0.0, 0.0, 0.0, 1.689599427299903E9, 0.0, 2023-07-17 15:10:27.299
165.0, -113.97154497761072, 187500.0, 187500.0, 187500.0, 187500.0, 187500.0, 187500.0, 187500.0, 0.042, -0.02, 1.004, 192.0, 0.0, 0.0, 0.0, 0.0, 0.0, 0.0, 0.0, 0.0, 0.0, 1.6895994272999425E9, 0.0, 2023-07-17 15:10:27.299
166.0, -104.31559137291806, 187500.0, 187500.0, 187500.0, 187500.0, 187500.0, 187500.0, 187500.0, 0.042, -0.02, 1.004, 192.0, 0.0, 0.0, 0.0, 0.0, 0.0, 0.0, 0.0, 0.0, 0.0, 1.689599427299981E9, 0.0, 2023-07-17 15:10:27.299
167.0, -92.37975983378409, 187500.0, 187500.0, 187500.0, 187500.0, 187500.0, 187500.0, 187500.0, 0.038, -0.02, 1.002, 192.0, 1.0, 48.0, 255.0, 96.0, 31.0, 80.0, 0.0, 0.0, 0.0, 1.6895994273000202E9, 0.0, 2023-07-17 15:10:27.300
168.0, -94.83845172386786, 187500.0, 187500.0, 187500.0, 187500.0, 187500.0, 187500.0, 187500.0, 0.038, -0.02, 1.002, 192.0, 0.0, 0.0, 0.0, 0.0, 0.0, 0.0, 0.0, 0.0, 0.0, 1.6895994273000617E9, 0.0, 2023-07-17 15:10:27.300
169.0, -107.64600129675881, 187500.0, 187500.0, 187500.0, 187500.0, 187500.0, 187500.0, 187500.0, 0.038, -0.02, 1.002, 192.0, 0.0, 0.0, 0.0, 0.0, 0.0, 0.0, 0.0, 0.0, 0.0, 1.6895994273001504E9, 0.0, 2023-07-17 15:10:27.300
170.0, -113.41275136622804, 187500.0, 187500.0, 187500.0, 187500.0, 187500.0, 187500.0, 187500.0, 0.038, -0.02, 1.002, 192.0, 0.0, 0.0, 0.0, 0.0, 0.0, 0.0, 0.0, 0.0, 0.0, 1.6895994273001902E9, 0.0, 2023-07-17 15:10:27.300
171.0, -104.18148090618622, 187500.0, 187500.0, 187500.0, 187500.0, 187500.0, 187500.0, 187500.0, 0.038, -0.02, 1.002, 192.0, 0.0, 0.0, 0.0, 0.0, 0.0, 0.0, 0.0, 0.0, 0.0, 1.6895994273002288E9, 0.0, 2023-07-17 15:10:27.300
172.0, -92.44681506715001, 187500.0, 187500.0, 187500.0, 187500.0, 187500.0, 187500.0, 187500.0, 0.038, -0.02, 1.002, 192.0, 0.0, 0.0, 0.0, 0.0, 0.0, 0.0, 0.0, 0.0, 0.0, 1.6895994273002684E9, 0.0, 2023-07-17 15:10:27.300
173.0, -94.39141683476173, 187500.0, 187500.0, 187500.0, 187500.0, 187500.0, 187500.0, 187500.0, 0.038, -0.02, 1.002, 192.0, 0.0, 0.0, 0.0, 0.0, 0.0, 0.0, 0.0, 0.0, 0.0, 1.689599427300308E9, 0.0, 2023-07-17 15:10:27.300
174.0, -107.22131815210798, 187500.0, 187500.0, 187500.0, 187500.0, 187500.0, 187500.0, 187500.0, 0.038, -0.02, 1.002, 192.0, 0.0, 0.0, 0.0, 0.0, 0.0, 0.0, 0.0, 0.0, 0.0, 1.6895994273003476E9, 0.0, 2023-07-17 15:10:27.300
175.0, -113.88213799978948, 187500.0, 187500.0, 187500.0, 187500.0, 187500.0, 187500.0, 187500.0, 0.038, -0.02, 1.002, 192.0, 0.0, 0.0, 0.0, 0.0, 0.0, 0.0, 0.0, 0.0, 0.0, 1.689599427300387E9, 0.0, 2023-07-17 15:10:27.300
176.0, -104.69557102865828, 187500.0, 187500.0, 187500.0, 187500.0, 187500.0, 187500.0, 187500.0, 0.038, -0.02, 1.002, 192.0, 0.0, 0.0, 0.0, 0.0, 0.0, 0.0, 0.0, 0.0, 0.0, 1.6895994273004258E9, 0.0, 2023-07-17 15:10:27.300
177.0, -92.89384995625615, 187500.0, 187500.0, 187500.0, 187500.0, 187500.0, 187500.0, 187500.0, 0.038, -0.016, 1.004, 192.0, 1.0, 48.0, 255.0, 128.0, 31.0, 96.0, 0.0, 0.0, 0.0, 1.6895994273004656E9, 0.0, 2023-07-17 15:10:27.300
178.0, -94.07849241238743, 187500.0, 187500.0, 187500.0, 187500.0, 187500.0, 187500.0, 187500.0, 0.038, -0.016, 1.004, 192.0, 0.0, 0.0, 0.0, 0.0, 0.0, 0.0, 0.0, 0.0, 0.0, 1.6895994273005068E9, 0.0, 2023-07-17 15:10:27.300
179.0, -107.40013210775044, 187500.0, 187500.0, 187500.0, 187500.0, 187500.0, 187500.0, 187500.0, 0.038, -0.016, 1.004, 192.0, 0.0, 0.0, 0.0, 0.0, 0.0, 0.0, 0.0, 0.0, 0.0, 1.689599427300546E9, 0.0, 2023-07-17 15:10:27.300
180.0, -114.01624846652133, 187500.0, 187500.0, 187500.0, 187500.0, 187500.0, 187500.0, 187500.0, 0.038, -0.016, 1.004, 192.0, 0.0, 0.0, 0.0, 0.0, 0.0, 0.0, 0.0, 0.0, 0.0, 1.689599427300586E9, 0.0, 2023-07-17 15:10:27.300
181.0, -103.86855648381191, 187500.0, 187500.0, 187500.0, 187500.0, 187500.0, 187500.0, 187500.0, 0.038, -0.016, 1.004, 192.0, 0.0, 0.0, 0.0, 0.0, 0.0, 0.0, 0.0, 0.0, 0.0, 1.6895994273006256E9, 0.0, 2023-07-17 15:10:27.300
182.0, -91.73155924458018, 187500.0, 187500.0, 187500.0, 187500.0, 187500.0, 187500.0, 187500.0, 0.038, -0.016, 1.004, 192.0, 0.0, 0.0, 0.0, 0.0, 0.0, 0.0, 0.0, 0.0, 0.0, 1.6895994273006642E9, 0.0, 2023-07-17 15:10:27.300
183.0, -94.16789939020866, 187500.0, 187500.0, 187500.0, 187500.0, 187500.0, 187500.0, 187500.0, 0.038, -0.016, 1.004, 192.0, 0.0, 0.0, 0.0, 0.0, 0.0, 0.0, 0.0, 0.0, 0.0, 1.6895994273007033E9, 0.0, 2023-07-17 15:10:27.300
184.0, -107.13191117428676, 187500.0, 187500.0, 187500.0, 187500.0, 187500.0, 187500.0, 187500.0, 0.038, -0.016, 1.004, 192.0, 0.0, 0.0, 0.0, 0.0, 0.0, 0.0, 0.0, 0.0, 0.0, 1.6895994273007827E9, 0.0, 2023-07-17 15:10:27.300
185.0, -112.9657164771219, 187500.0, 187500.0, 187500.0, 187500.0, 187500.0, 187500.0, 187500.0, 0.038, -0.016, 1.004, 192.0, 0.0, 0.0, 0.0, 0.0, 0.0, 0.0, 0.0, 0.0, 0.0, 1.6895994273008223E9, 0.0, 2023-07-17 15:10:27.300
186.0, -103.60033555034823, 187500.0, 187500.0, 187500.0, 187500.0, 187500.0, 187500.0, 187500.0, 0.038, -0.016, 1.004, 192.0, 0.0, 0.0, 0.0, 0.0, 0.0, 0.0, 0.0, 0.0, 0.0, 1.689599427300862E9, 0.0, 2023-07-17 15:10:27.300
187.0, -92.69268425615839, 187500.0, 187500.0, 187500.0, 187500.0, 187500.0, 187500.0, 187500.0, 0.038, -0.02, 1.014, 192.0, 1.0, 48.0, 255.0, 96.0, 31.0, 176.0, 0.0, 0.0, 0.0, 1.689599427300902E9, 0.0, 2023-07-17 15:10:27.300
188.0, -93.92203020120027, 187500.0, 187500.0, 187500.0, 187500.0, 187500.0, 187500.0, 187500.0, 0.038, -0.02, 1.014, 192.0, 0.0, 0.0, 0.0, 0.0, 0.0, 0.0, 0.0, 0.0, 0.0, 1.689599427300941E9, 0.0, 2023-07-17 15:10:27.300
189.0, -107.22131815210798, 187500.0, 187500.0, 187500.0, 187500.0, 187500.0, 187500.0, 187500.0, 0.038, -0.02, 1.014, 192.0, 0.0, 0.0, 0.0, 0.0, 0.0, 0.0, 0.0, 0.0, 0.0, 1.689599427300978E9, 0.0, 2023-07-17 15:10:27.300
190.0, -113.85978625533417, 187500.0, 187500.0, 187500.0, 187500.0, 187500.0, 187500.0, 187500.0, 0.038, -0.02, 1.014, 192.0, 0.0, 0.0, 0.0, 0.0, 0.0, 0.0, 0.0, 0.0, 0.0, 1.689599427301028E9, 0.0, 2023-07-17 15:10:27.301
191.0, -104.51675707301582, 187500.0, 187500.0, 187500.0, 187500.0, 187500.0, 187500.0, 187500.0, 0.038, -0.02, 1.014, 192.0, 0.0, 0.0, 0.0, 0.0, 0.0, 0.0, 0.0, 0.0, 0.0, 1.6895994273010716E9, 0.0, 2023-07-17 15:10:27.301
192.0, -91.88802145576733, 187500.0, 187500.0, 187500.0, 187500.0, 187500.0, 187500.0, 187500.0, 0.038, -0.02, 1.014, 192.0, 0.0, 0.0, 0.0, 0.0, 0.0, 0.0, 0.0, 0.0, 0.0, 1.689599427301114E9, 0.0, 2023-07-17 15:10:27.301
193.0, -94.12319590129805, 187500.0, 187500.0, 187500.0, 187500.0, 187500.0, 187500.0, 187500.0, 0.038, -0.02, 1.014, 192.0, 0.0, 0.0, 0.0, 0.0, 0.0, 0.0, 0.0, 0.0, 0.0, 1.6895994273011565E9, 0.0, 2023-07-17 15:10:27.301
194.0, -106.81898675191245, 187500.0, 187500.0, 187500.0, 187500.0, 187500.0, 187500.0, 187500.0, 0.038, -0.02, 1.014, 192.0, 0.0, 0.0, 0.0, 0.0, 0.0, 0.0, 0.0, 0.0, 0.0, 1.6895994273011992E9, 0.0, 2023-07-17 15:10:27.301
195.0, -113.01041996603252, 187500.0, 187500.0, 187500.0, 187500.0, 187500.0, 187500.0, 187500.0, 0.038, -0.02, 1.014, 192.0, 0.0, 0.0, 0.0, 0.0, 0.0, 0.0, 0.0, 0.0, 0.0, 1.6895994273012416E9, 0.0, 2023-07-17 15:10:27.301
196.0, -104.80732975093481, 187500.0, 187500.0, 187500.0, 187500.0, 187500.0, 187500.0, 187500.0, 0.038, -0.02, 1.014, 192.0, 0.0, 0.0, 0.0, 0.0, 0.0, 0.0, 0.0, 0.0, 0.0, 1.689599427301284E9, 0.0, 2023-07-17 15:10:27.301
197.0, -92.46916681160532, 187500.0, 187500.0, 187500.0, 187500.0, 187500.0, 187500.0, 187500.0, 0.038, -0.014, 1.01, 192.0, 1.0, 48.0, 255.0, 144.0, 31.0, 144.0, 0.0, 0.0, 0.0, 1.6895994273013265E9, 0.0, 2023-07-17 15:10:27.301
198.0, -94.14554764575335, 187500.0, 187500.0, 187500.0, 187500.0, 187500.0, 187500.0, 187500.0, 0.038, -0.014, 1.01, 192.0, 0.0, 0.0, 0.0, 0.0, 0.0, 0.0, 0.0, 0.0, 0.0, 1.6895994273013718E9, 0.0, 2023-07-17 15:10:27.301
199.0, -107.22131815210798, 187500.0, 187500.0, 187500.0, 187500.0, 187500.0, 187500.0, 187500.0, 0.038, -0.014, 1.01, 192.0, 0.0, 0.0, 0.0, 0.0, 0.0, 0.0, 0.0, 0.0, 0.0, 1.6895994273014145E9, 0.0, 2023-07-17 15:10:27.301
200.0, -113.88213799978948, 187500.0, 187500.0, 187500.0, 187500.0, 187500.0, 187500.0, 187500.0, 0.038, -0.014, 1.01, 192.0, 0.0, 0.0, 0.0, 0.0, 0.0, 0.0, 0.0, 0.0, 0.0, 1.6895994273015003E9, 0.0, 2023-07-17 15:10:27.301
201.0, -104.40499835073929, 187500.0, 187500.0, 187500.0, 187500.0, 187500.0, 187500.0, 187500.0, 0.038, -0.014, 1.01, 192.0, 0.0, 0.0, 0.0, 0.0, 0.0, 0.0, 0.0, 0.0, 0.0, 1.6895994273015437E9, 0.0, 2023-07-17 15:10:27.301
202.0, -92.31270460041817, 187500.0, 187500.0, 187500.0, 187500.0, 187500.0, 187500.0, 187500.0, 0.038, -0.014, 1.01, 192.0, 0.0, 0.0, 0.0, 0.0, 0.0, 0.0, 0.0, 0.0, 0.0, 1.689599427301586E9, 0.0, 2023-07-17 15:10:27.301
203.0, -94.23495462357458, 187500.0, 187500.0, 187500.0, 187500.0, 187500.0, 187500.0, 187500.0, 0.038, -0.014, 1.01, 192.0, 0.0, 0.0, 0.0, 0.0, 0.0, 0.0, 0.0, 0.0, 0.0, 1.6895994273016284E9, 0.0, 2023-07-17 15:10:27.301
204.0, -106.84133849636775, 187500.0, 187500.0, 187500.0, 187500.0, 187500.0, 187500.0, 187500.0, 0.038, -0.014, 1.01, 192.0, 0.0, 0.0, 0.0, 0.0, 0.0, 0.0, 0.0, 0.0, 0.0, 1.6895994273016715E9, 0.0, 2023-07-17 15:10:27.301
205.0, -114.17271067770848, 187500.0, 187500.0, 187500.0, 187500.0, 187500.0, 187500.0, 187500.0, 0.038, -0.014, 1.01, 192.0, 0.0, 0.0, 0.0, 0.0, 0.0, 0.0, 0.0, 0.0, 0.0, 1.6895994273017209E9, 0.0, 2023-07-17 15:10:27.301
206.0, -105.43317859568342, 187500.0, 187500.0, 187500.0, 187500.0, 187500.0, 187500.0, 187500.0, 0.036000000000000004, -0.016, 1.004, 192.0, 1.0, 32.0, 255.0, 128.0, 31.0, 96.0, 0.0, 0.0, 0.0, 1.6895994273017707E9, 0.0, 2023-07-17 15:10:27.301
207.0, -92.78209123397961, 187500.0, 187500.0, 187500.0, 187500.0, 187500.0, 187500.0, 187500.0, 0.036000000000000004, -0.016, 1.004, 192.0, 0.0, 0.0, 0.0, 0.0, 0.0, 0.0, 0.0, 0.0, 0.0, 1.6895994273018138E9, 0.0, 2023-07-17 15:10:27.301
208.0, -94.6149342793148, 187500.0, 187500.0, 187500.0, 187500.0, 187500.0, 187500.0, 187500.0, 0.036000000000000004, -0.016, 1.004, 192.0, 0.0, 0.0, 0.0, 0.0, 0.0, 0.0, 0.0, 0.0, 0.0, 1.6895994273018515E9, 0.0, 2023-07-17 15:10:27.301
209.0, -107.42248385220574, 187500.0, 187500.0, 187500.0, 187500.0, 187500.0, 187500.0, 187500.0, 0.036000000000000004, -0.016, 1.004, 192.0, 0.0, 0.0, 0.0, 0.0, 0.0, 0.0, 0.0, 0.0, 0.0, 1.6895994273018925E9, 0.0, 2023-07-17 15:10:27.301
210.0, -113.74802753305764, 187500.0, 187500.0, 187500.0, 187500.0, 187500.0, 187500.0, 187500.0, 0.036000000000000004, -0.016, 1.004, 192.0, 0.0, 0.0, 0.0, 0.0, 0.0, 0.0, 0.0, 0.0, 0.0, 1.6895994273019326E9, 0.0, 2023-07-17 15:10:27.301
211.0, -104.87438498430073, 187500.0, 187500.0, 187500.0, 187500.0, 187500.0, 187500.0, 187500.0, 0.036000000000000004, -0.016, 1.004, 192.0, 0.0, 0.0, 0.0, 0.0, 0.0, 0.0, 0.0, 0.0, 0.0, 1.689599427301973E9, 0.0, 2023-07-17 15:10:27.301
212.0, -92.58092553388185, 187500.0, 187500.0, 187500.0, 187500.0, 187500.0, 187500.0, 187500.0, 0.036000000000000004, -0.016, 1.004, 192.0, 0.0, 0.0, 0.0, 0.0, 0.0, 0.0, 0.0, 0.0, 0.0, 1.6895994273020127E9, 0.0, 2023-07-17 15:10:27.302
213.0, -93.92203020120027, 187500.0, 187500.0, 187500.0, 187500.0, 187500.0, 187500.0, 187500.0, 0.036000000000000004, -0.016, 1.004, 192.0, 0.0, 0.0, 0.0, 0.0, 0.0, 0.0, 0.0, 0.0, 0.0, 1.6895994273020525E9, 0.0, 2023-07-17 15:10:27.302
214.0, -107.10955942983145, 187500.0, 187500.0, 187500.0, 187500.0, 187500.0, 187500.0, 187500.0, 0.036000000000000004, -0.016, 1.004, 192.0, 0.0, 0.0, 0.0, 0.0, 0.0, 0.0, 0.0, 0.0, 0.0, 1.689599427302092E9, 0.0, 2023-07-17 15:10:27.302
215.0, -114.08330369988725, 187500.0, 187500.0, 187500.0, 187500.0, 187500.0, 187500.0, 187500.0, 0.036000000000000004, -0.016, 1.004, 192.0, 0.0, 0.0, 0.0, 0.0, 0.0, 0.0, 0.0, 0.0, 0.0, 1.6895994273021777E9, 0.0, 2023-07-17 15:10:27.302
216.0, -104.7626262620242, 187500.0, 187500.0, 187500.0, 187500.0, 187500.0, 187500.0, 187500.0, 0.038, -0.018000000000000002, 1.006, 192.0, 1.0, 48.0, 255.0, 112.0, 31.0, 112.0, 0.0, 0.0, 0.0, 1.6895994273022175E9, 0.0, 2023-07-17 15:10:27.302
217.0, -92.44681506715001, 187500.0, 187500.0, 187500.0, 187500.0, 187500.0, 187500.0, 187500.0, 0.038, -0.018000000000000002, 1.006, 192.0, 0.0, 0.0, 0.0, 0.0, 0.0, 0.0, 0.0, 0.0, 0.0, 1.6895994273022828E9, 0.0, 2023-07-17 15:10:27.302
218.0, -93.89967845674497, 187500.0, 187500.0, 187500.0, 187500.0, 187500.0, 187500.0, 187500.0, 0.038, -0.018000000000000002, 1.006, 192.0, 0.0, 0.0, 0.0, 0.0, 0.0, 0.0, 0.0, 0.0, 0.0, 1.6895994273023946E9, 0.0, 2023-07-17 15:10:27.302
219.0, -106.79663500745714, 187500.0, 187500.0, 187500.0, 187500.0, 187500.0, 187500.0, 187500.0, 0.038, -0.018000000000000002, 1.006, 192.0, 0.0, 0.0, 0.0, 0.0, 0.0, 0.0, 0.0, 0.0, 0.0, 1.6895994273025153E9, 0.0, 2023-07-17 15:10:27.302
220.0, -113.65862055523641, 187500.0, 187500.0, 187500.0, 187500.0, 187500.0, 187500.0, 187500.0, 0.038, -0.018000000000000002, 1.006, 192.0, 0.0, 0.0, 0.0, 0.0, 0.0, 0.0, 0.0, 0.0, 0.0, 1.689599427302564E9, 0.0, 2023-07-17 15:10:27.302
221.0, -105.07555068439851, 187500.0, 187500.0, 187500.0, 187500.0, 187500.0, 187500.0, 187500.0, 0.038, -0.018000000000000002, 1.006, 192.0, 0.0, 0.0, 0.0, 0.0, 0.0, 0.0, 0.0, 0.0, 0.0, 1.6895994273026147E9, 0.0, 2023-07-17 15:10:27.302
222.0, -92.64798076724777, 187500.0, 187500.0, 187500.0, 187500.0, 187500.0, 187500.0, 187500.0, 0.038, -0.018000000000000002, 1.006, 192.0, 0.0, 0.0, 0.0, 0.0, 0.0, 0.0, 0.0, 0.0, 0.0, 1.689599427302656E9, 0.0, 2023-07-17 15:10:27.302
223.0, -94.07849241238743, 187500.0, 187500.0, 187500.0, 187500.0, 187500.0, 187500.0, 187500.0, 0.038, -0.018000000000000002, 1.006, 192.0, 0.0, 0.0, 0.0, 0.0, 0.0, 0.0, 0.0, 0.0, 0.0, 1.6895994273026974E9, 0.0, 2023-07-17 15:10:27.302
224.0, -107.40013210775044, 187500.0, 187500.0, 187500.0, 187500.0, 187500.0, 187500.0, 187500.0, 0.038, -0.018000000000000002, 1.006, 192.0, 0.0, 0.0, 0.0, 0.0, 0.0, 0.0, 0.0, 0.0, 0.0, 1.6895994273027394E9, 0.0, 2023-07-17 15:10:27.302
225.0, -113.68097229969172, 187500.0, 187500.0, 187500.0, 187500.0, 187500.0, 187500.0, 187500.0, 0.038, -0.018000000000000002, 1.006, 192.0, 0.0, 0.0, 0.0, 0.0, 0.0, 0.0, 0.0, 0.0, 0.0, 1.6895994273027916E9, 0.0, 2023-07-17 15:10:27.302
226.0, -105.12025417330912, 187500.0, 187500.0, 187500.0, 187500.0, 187500.0, 187500.0, 187500.0, 0.044, -0.02, 1.012, 192.0, 1.0, 96.0, 255.0, 96.0, 31.0, 160.0, 0.0, 0.0, 0.0, 1.689599427302838E9, 0.0, 2023-07-17 15:10:27.302
227.0, -93.07266391189862, 187500.0, 187500.0, 187500.0, 187500.0, 187500.0, 187500.0, 187500.0, 0.044, -0.02, 1.012, 192.0, 0.0, 0.0, 0.0, 0.0, 0.0, 0.0, 0.0, 0.0, 0.0, 1.689599427302882E9, 0.0, 2023-07-17 15:10:27.302
228.0, -94.0114371790215, 187500.0, 187500.0, 187500.0, 187500.0, 187500.0, 187500.0, 187500.0, 0.044, -0.02, 1.012, 192.0, 0.0, 0.0, 0.0, 0.0, 0.0, 0.0, 0.0, 0.0, 0.0, 1.689599427302948E9, 0.0, 2023-07-17 15:10:27.302
229.0, -107.15426291874206, 187500.0, 187500.0, 187500.0, 187500.0, 187500.0, 187500.0, 187500.0, 0.044, -0.02, 1.012, 192.0, 0.0, 0.0, 0.0, 0.0, 0.0, 0.0, 0.0, 0.0, 0.0, 1.68959942730299E9, 0.0, 2023-07-17 15:10:27.302
230.0, -113.97154497761072, 187500.0, 187500.0, 187500.0, 187500.0, 187500.0, 187500.0, 187500.0, 0.044, -0.02, 1.012, 192.0, 0.0, 0.0, 0.0, 0.0, 0.0, 0.0, 0.0, 0.0, 0.0, 1.689599427303116E9, 0.0, 2023-07-17 15:10:27.303
231.0, -104.7626262620242, 187500.0, 187500.0, 187500.0, 187500.0, 187500.0, 187500.0, 187500.0, 0.044, -0.02, 1.012, 192.0, 0.0, 0.0, 0.0, 0.0, 0.0, 0.0, 0.0, 0.0, 0.0, 1.6895994273031633E9, 0.0, 2023-07-17 15:10:27.303
232.0, -92.58092553388185, 187500.0, 187500.0, 187500.0, 187500.0, 187500.0, 187500.0, 187500.0, 0.044, -0.02, 1.012, 192.0, 0.0, 0.0, 0.0, 0.0, 0.0, 0.0, 0.0, 0.0, 0.0, 1.689599427303206E9, 0.0, 2023-07-17 15:10:27.303
233.0, -94.0337889234768, 187500.0, 187500.0, 187500.0, 187500.0, 187500.0, 187500.0, 187500.0, 0.044, -0.02, 1.012, 192.0, 0.0, 0.0, 0.0, 0.0, 0.0, 0.0, 0.0, 0.0, 0.0, 1.6895994273032491E9, 0.0, 2023-07-17 15:10:27.303
234.0, -107.13191117428676, 187500.0, 187500.0, 187500.0, 187500.0, 187500.0, 187500.0, 187500.0, 0.044, -0.02, 1.012, 192.0, 0.0, 0.0, 0.0, 0.0, 0.0, 0.0, 0.0, 0.0, 0.0, 1.6895994273032904E9, 0.0, 2023-07-17 15:10:27.303
235.0, -113.85978625533417, 187500.0, 187500.0, 187500.0, 187500.0, 187500.0, 187500.0, 187500.0, 0.044, -0.02, 1.012, 192.0, 0.0, 0.0, 0.0, 0.0, 0.0, 0.0, 0.0, 0.0, 0.0, 1.6895994273033316E9, 0.0, 2023-07-17 15:10:27.303
236.0, -105.34377161786219, 187500.0, 187500.0, 187500.0, 187500.0, 187500.0, 187500.0, 187500.0, 0.04, -0.02, 1.008, 192.0, 1.0, 64.0, 255.0, 96.0, 31.0, 128.0, 0.0, 0.0, 0.0, 1.6895994273033755E9, 0.0, 2023-07-17 15:10:27.303
237.0, -92.51387030051593, 187500.0, 187500.0, 187500.0, 187500.0, 187500.0, 187500.0, 187500.0, 0.04, -0.02, 1.008, 192.0, 0.0, 0.0, 0.0, 0.0, 0.0, 0.0, 0.0, 0.0, 0.0, 1.6895994273034213E9, 0.0, 2023-07-17 15:10:27.303
238.0, -93.85497496783435, 187500.0, 187500.0, 187500.0, 187500.0, 187500.0, 187500.0, 187500.0, 0.04, -0.02, 1.008, 192.0, 0.0, 0.0, 0.0, 0.0, 0.0, 0.0, 0.0, 0.0, 0.0, 1.6895994273034644E9, 0.0, 2023-07-17 15:10:27.303
239.0, -106.9754489630996, 187500.0, 187500.0, 187500.0, 187500.0, 187500.0, 187500.0, 187500.0, 0.04, -0.02, 1.008, 192.0, 0.0, 0.0, 0.0, 0.0, 0.0, 0.0, 0.0, 0.0, 0.0, 1.6895994273035076E9, 0.0, 2023-07-17 15:10:27.303
240.0, -113.47980659959396, 187500.0, 187500.0, 187500.0, 187500.0, 187500.0, 187500.0, 187500.0, 0.04, -0.02, 1.008, 192.0, 0.0, 0.0, 0.0, 0.0, 0.0, 0.0, 0.0, 0.0, 0.0, 1.6895994273035564E9, 0.0, 2023-07-17 15:10:27.303
241.0, -105.07555068439851, 187500.0, 187500.0, 187500.0, 187500.0, 187500.0, 187500.0, 187500.0, 0.04, -0.02, 1.008, 192.0, 0.0, 0.0, 0.0, 0.0, 0.0, 0.0, 0.0, 0.0, 0.0, 1.689599427782484E9, 0.0, 2023-07-17 15:10:27.782
242.0, -93.09501565635392, 187500.0, 187500.0, 187500.0, 187500.0, 187500.0, 187500.0, 187500.0, 0.04, -0.02, 1.008, 192.0, 0.0, 0.0, 0.0, 0.0, 0.0, 0.0, 0.0, 0.0, 0.0, 1.6895994277826388E9, 0.0, 2023-07-17 15:10:27.782
243.0, -94.0114371790215, 187500.0, 187500.0, 187500.0, 187500.0, 187500.0, 187500.0, 187500.0, 0.04, -0.02, 1.008, 192.0, 0.0, 0.0, 0.0, 0.0, 0.0, 0.0, 0.0, 0.0, 0.0, 1.6895994277826989E9, 0.0, 2023-07-17 15:10:27.782
244.0, -106.57311756290407, 187500.0, 187500.0, 187500.0, 187500.0, 187500.0, 187500.0, 187500.0, 0.04, -0.02, 1.008, 192.0, 0.0, 0.0, 0.0, 0.0, 0.0, 0.0, 0.0, 0.0, 0.0, 1.6895994277827468E9, 0.0, 2023-07-17 15:10:27.782
245.0, -113.52451008850457, 187500.0, 187500.0, 187500.0, 187500.0, 187500.0, 187500.0, 187500.0, 0.04, -0.02, 1.008, 192.0, 0.0, 0.0, 0.0, 0.0, 0.0, 0.0, 0.0, 0.0, 0.0, 1.6895994277831476E9, 0.0, 2023-07-17 15:10:27.783
246.0, -104.87438498430073, 187500.0, 187500.0, 187500.0, 187500.0, 187500.0, 187500.0, 187500.0, 0.034, -0.02, 1.01, 192.0, 1.0, 16.0, 255.0, 96.0, 31.0, 144.0, 0.0, 0.0, 0.0, 1.6895994277832139E9, 0.0, 2023-07-17 15:10:27.783
247.0, -92.55857378942655, 187500.0, 187500.0, 187500.0, 187500.0, 187500.0, 187500.0, 187500.0, 0.034, -0.02, 1.01, 192.0, 0.0, 0.0, 0.0, 0.0, 0.0, 0.0, 0.0, 0.0, 0.0, 1.6895994277832916E9, 0.0, 2023-07-17 15:10:27.783
248.0, -93.83262322337904, 187500.0, 187500.0, 187500.0, 187500.0, 187500.0, 187500.0, 187500.0, 0.034, -0.02, 1.01, 192.0, 0.0, 0.0, 0.0, 0.0, 0.0, 0.0, 0.0, 0.0, 0.0, 1.6895994277833643E9, 0.0, 2023-07-17 15:10:27.783
249.0, -106.30489662944039, 187500.0, 187500.0, 187500.0, 187500.0, 187500.0, 187500.0, 187500.0, 0.034, -0.02, 1.01, 192.0, 0.0, 0.0, 0.0, 0.0, 0.0, 0.0, 0.0, 0.0, 0.0, 1.6895994277834249E9, 0.0, 2023-07-17 15:10:27.783
250.0, -113.65862055523641, 187500.0, 187500.0, 187500.0, 187500.0, 187500.0, 187500.0, 187500.0, 0.034, -0.02, 1.01, 192.0, 0.0, 0.0, 0.0, 0.0, 0.0, 0.0, 0.0, 0.0, 0.0, 1.6895994277834804E9, 0.0, 2023-07-17 15:10:27.783
251.0, -104.74027451756889, 187500.0, 187500.0, 187500.0, 187500.0, 187500.0, 187500.0, 187500.0, 0.034, -0.02, 1.01, 192.0, 0.0, 0.0, 0.0, 0.0, 0.0, 0.0, 0.0, 0.0, 0.0, 1.6895994277835274E9, 0.0, 2023-07-17 15:10:27.783
252.0, -92.46916681160532, 187500.0, 187500.0, 187500.0, 187500.0, 187500.0, 187500.0, 187500.0, 0.034, -0.02, 1.01, 192.0, 0.0, 0.0, 0.0, 0.0, 0.0, 0.0, 0.0, 0.0, 0.0, 1.6895994277835767E9, 0.0, 2023-07-17 15:10:27.783
253.0, -93.6761610121919, 187500.0, 187500.0, 187500.0, 187500.0, 187500.0, 187500.0, 187500.0, 0.034, -0.02, 1.01, 192.0, 0.0, 0.0, 0.0, 0.0, 0.0, 0.0, 0.0, 0.0, 0.0, 1.68959942778362E9, 0.0, 2023-07-17 15:10:27.783
254.0, -106.64017279627, 187500.0, 187500.0, 187500.0, 187500.0, 187500.0, 187500.0, 187500.0, 0.034, -0.02, 1.01, 192.0, 0.0, 0.0, 0.0, 0.0, 0.0, 0.0, 0.0, 0.0, 0.0, 1.6895994277836635E9, 0.0, 2023-07-17 15:10:27.783
255.0, -113.34569613286212, 187500.0, 187500.0, 187500.0, 187500.0, 187500.0, 187500.0, 187500.0, 0.034, -0.02, 1.01, 192.0, 0.0, 0.0, 0.0, 0.0, 0.0, 0.0, 0.0, 0.0, 0.0, 1.689599427783713E9, 0.0, 2023-07-17 15:10:27.783
0.0, -104.98614370657727, 187500.0, 187500.0, 187500.0, 187500.0, 187500.0, 187500.0, 187500.0, 0.036000000000000004, -0.022, 1.008, 192.0, 1.0, 32.0, 255.0, 80.0, 31.0, 128.0, 0.0, 0.0, 0.0, 1.6895994277837555E9, 0.0, 2023-07-17 15:10:27.783
1.0, -92.89384995625615, 187500.0, 187500.0, 187500.0, 187500.0, 187500.0, 187500.0, 187500.0, 0.036000000000000004, -0.022, 1.008, 192.0, 0.0, 0.0, 0.0, 0.0, 0.0, 0.0, 0.0, 0.0, 0.0, 1.6895994277837987E9, 0.0, 2023-07-17 15:10:27.783
2.0, -93.45264356763883, 187500.0, 187500.0, 187500.0, 187500.0, 187500.0, 187500.0, 187500.0, 0.036000000000000004, -0.022, 1.008, 192.0, 0.0, 0.0, 0.0, 0.0, 0.0, 0.0, 0.0, 0.0, 0.0, 1.6895994277838457E9, 0.0, 2023-07-17 15:10:27.783
3.0, -106.3272483738957, 187500.0, 187500.0, 187500.0, 187500.0, 187500.0, 187500.0, 187500.0, 0.036000000000000004, -0.022, 1.008, 192.0, 0.0, 0.0, 0.0, 0.0, 0.0, 0.0, 0.0, 0.0, 0.0, 1.689599427783893E9, 0.0, 2023-07-17 15:10:27.783
4.0, -113.56921357741518, 187500.0, 187500.0, 187500.0, 187500.0, 187500.0, 187500.0, 187500.0, 0.036000000000000004, -0.022, 1.008, 192.0, 0.0, 0.0, 0.0, 0.0, 0.0, 0.0, 0.0, 0.0, 0.0, 1.689599427783939E9, 0.0, 2023-07-17 15:10:27.783
5.0, -105.09790242885381, 187500.0, 187500.0, 187500.0, 187500.0, 187500.0, 187500.0, 187500.0, 0.036000000000000004, -0.022, 1.008, 192.0, 0.0, 0.0, 0.0, 0.0, 0.0, 0.0, 0.0, 0.0, 0.0, 1.6895994277841127E9, 0.0, 2023-07-17 15:10:27.784
6.0, -92.46916681160532, 187500.0, 187500.0, 187500.0, 187500.0, 187500.0, 187500.0, 187500.0, 0.036000000000000004, -0.022, 1.008, 192.0, 0.0, 0.0, 0.0, 0.0, 0.0, 0.0, 0.0, 0.0, 0.0, 1.689599427784156E9, 0.0, 2023-07-17 15:10:27.784
7.0, -93.3632365898176, 187500.0, 187500.0, 187500.0, 187500.0, 187500.0, 187500.0, 187500.0, 0.036000000000000004, -0.022, 1.008, 192.0, 0.0, 0.0, 0.0, 0.0, 0.0, 0.0, 0.0, 0.0, 0.0, 1.6895994277842028E9, 0.0, 2023-07-17 15:10:27.784
8.0, -106.93074547418898, 187500.0, 187500.0, 187500.0, 187500.0, 187500.0, 187500.0, 187500.0, 0.036000000000000004, -0.022, 1.008, 192.0, 0.0, 0.0, 0.0, 0.0, 0.0, 0.0, 0.0, 0.0, 0.0, 1.6895994277842488E9, 0.0, 2023-07-17 15:10:27.784
9.0, -113.90448974424478, 187500.0, 187500.0, 187500.0, 187500.0, 187500.0, 187500.0, 187500.0, 0.036000000000000004, -0.022, 1.008, 192.0, 0.0, 0.0, 0.0, 0.0, 0.0, 0.0, 0.0, 0.0, 0.0, 1.689599427784295E9, 0.0, 2023-07-17 15:10:27.784
10.0, -104.98614370657727, 187500.0, 187500.0, 187500.0, 187500.0, 187500.0, 187500.0, 187500.0, 0.034, -0.024, 1.008, 192.0, 1.0, 16.0, 255.0, 64.0, 31.0, 128.0, 0.0, 0.0, 0.0, 1.689599427784341E9, 0.0, 2023-07-17 15:10:27.784
11.0, -93.40794007872822, 187500.0, 187500.0, 187500.0, 187500.0, 187500.0, 187500.0, 187500.0, 0.034, -0.024, 1.008, 192.0, 0.0, 0.0, 0.0, 0.0, 0.0, 0.0, 0.0, 0.0, 0.0, 1.6895994277843883E9, 0.0, 2023-07-17 15:10:27.784
12.0, -94.34671334585111, 187500.0, 187500.0, 187500.0, 187500.0, 187500.0, 187500.0, 187500.0, 0.034, -0.024, 1.008, 192.0, 0.0, 0.0, 0.0, 0.0, 0.0, 0.0, 0.0, 0.0, 0.0, 1.6895994277844355E9, 0.0, 2023-07-17 15:10:27.784
13.0, -106.61782105181469, 187500.0, 187500.0, 187500.0, 187500.0, 187500.0, 187500.0, 187500.0, 0.034, -0.024, 1.008, 192.0, 0.0, 0.0, 0.0, 0.0, 0.0, 0.0, 0.0, 0.0, 0.0, 1.6895994277844832E9, 0.0, 2023-07-17 15:10:27.784
14.0, -113.68097229969172, 187500.0, 187500.0, 187500.0, 187500.0, 187500.0, 187500.0, 187500.0, 0.034, -0.024, 1.008, 192.0, 0.0, 0.0, 0.0, 0.0, 0.0, 0.0, 0.0, 0.0, 0.0, 1.6895994277845292E9, 0.0, 2023-07-17 15:10:27.784
15.0, -105.29906812895157, 187500.0, 187500.0, 187500.0, 187500.0, 187500.0, 187500.0, 187500.0, 0.034, -0.024, 1.008, 192.0, 0.0, 0.0, 0.0, 0.0, 0.0, 0.0, 0.0, 0.0, 0.0, 1.6895994277845712E9, 0.0, 2023-07-17 15:10:27.784
16.0, -93.65380926773659, 187500.0, 187500.0, 187500.0, 187500.0, 187500.0, 187500.0, 187500.0, 0.034, -0.024, 1.008, 192.0, 0.0, 0.0, 0.0, 0.0, 0.0, 0.0, 0.0, 0.0, 0.0, 1.6895994277846205E9, 0.0, 2023-07-17 15:10:27.784
17.0, -94.34671334585111, 187500.0, 187500.0, 187500.0, 187500.0, 187500.0, 187500.0, 187500.0, 0.034, -0.024, 1.008, 192.0, 0.0, 0.0, 0.0, 0.0, 0.0, 0.0, 0.0, 0.0, 0.0, 1.6895994277846682E9, 0.0, 2023-07-17 15:10:27.784
18.0, -107.04250419646553, 187500.0, 187500.0, 187500.0, 187500.0, 187500.0, 187500.0, 187500.0, 0.034, -0.024, 1.008, 192.0, 0.0, 0.0, 0.0, 0.0, 0.0, 0.0, 0.0, 0.0, 0.0, 1.6895994277847154E9, 0.0, 2023-07-17 15:10:27.784
19.0, -113.74802753305764, 187500.0, 187500.0, 187500.0, 187500.0, 187500.0, 187500.0, 187500.0, 0.034, -0.024, 1.008, 192.0, 0.0, 0.0, 0.0, 0.0, 0.0, 0.0, 0.0, 0.0, 0.0, 1.6895994277847614E9, 0.0, 2023-07-17 15:10:27.784
20.0, -105.43317859568342, 187500.0, 187500.0, 187500.0, 187500.0, 187500.0, 187500.0, 187500.0, 0.032, -0.028, 1.01, 192.0, 1.0, 0.0, 255.0, 32.0, 31.0, 144.0, 0.0, 0.0, 0.0, 1.6895994277849216E9, 0.0, 2023-07-17 15:10:27.784
21.0, -93.18442263417515, 187500.0, 187500.0, 187500.0, 187500.0, 187500.0, 187500.0, 187500.0, 0.032, -0.028, 1.01, 192.0, 0.0, 0.0, 0.0, 0.0, 0.0, 0.0, 0.0, 0.0, 0.0, 1.6895994277849731E9, 0.0, 2023-07-17 15:10:27.784
22.0, -93.00560867853268, 187500.0, 187500.0, 187500.0, 187500.0, 187500.0, 187500.0, 187500.0, 0.032, -0.028, 1.01, 192.0, 0.0, 0.0, 0.0, 0.0, 0.0, 0.0, 0.0, 0.0, 0.0, 1.689599427785022E9, 0.0, 2023-07-17 15:10:27.785
23.0, -106.81898675191245, 187500.0, 187500.0, 187500.0, 187500.0, 187500.0, 187500.0, 187500.0, 0.032, -0.028, 1.01, 192.0, 0.0, 0.0, 0.0, 0.0, 0.0, 0.0, 0.0, 0.0, 0.0, 1.6895994277850707E9, 0.0, 2023-07-17 15:10:27.785
24.0, -114.30682114444032, 187500.0, 187500.0, 187500.0, 187500.0, 187500.0, 187500.0, 187500.0, 0.032, -0.028, 1.01, 192.0, 0.0, 0.0, 0.0, 0.0, 0.0, 0.0, 0.0, 0.0, 0.0, 1.6895994277851183E9, 0.0, 2023-07-17 15:10:27.785
25.0, -105.81315825142363, 187500.0, 187500.0, 187500.0, 187500.0, 187500.0, 187500.0, 187500.0, 0.032, -0.028, 1.01, 192.0, 0.0, 0.0, 0.0, 0.0, 0.0, 0.0, 0.0, 0.0, 0.0, 1.6895994277851665E9, 0.0, 2023-07-17 15:10:27.785
26.0, -93.09501565635392, 187500.0, 187500.0, 187500.0, 187500.0, 187500.0, 187500.0, 187500.0, 0.032, -0.028, 1.01, 192.0, 0.0, 0.0, 0.0, 0.0, 0.0, 0.0, 0.0, 0.0, 0.0, 1.6895994277852144E9, 0.0, 2023-07-17 15:10:27.785
27.0, -93.78791973446843, 187500.0, 187500.0, 187500.0, 187500.0, 187500.0, 187500.0, 187500.0, 0.032, -0.028, 1.01, 192.0, 0.0, 0.0, 0.0, 0.0, 0.0, 0.0, 0.0, 0.0, 0.0, 1.6895994277852626E9, 0.0, 2023-07-17 15:10:27.785
28.0, -107.44483559666105, 187500.0, 187500.0, 187500.0, 187500.0, 187500.0, 187500.0, 187500.0, 0.032, -0.028, 1.01, 192.0, 0.0, 0.0, 0.0, 0.0, 0.0, 0.0, 0.0, 0.0, 0.0, 1.6895994277853098E9, 0.0, 2023-07-17 15:10:27.785
29.0, -113.77037927751294, 187500.0, 187500.0, 187500.0, 187500.0, 187500.0, 187500.0, 187500.0, 0.032, -0.028, 1.01, 192.0, 0.0, 0.0, 0.0, 0.0, 0.0, 0.0, 0.0, 0.0, 0.0, 1.6895994277853577E9, 0.0, 2023-07-17 15:10:27.785
30.0, -105.29906812895157, 187500.0, 187500.0, 187500.0, 187500.0, 187500.0, 187500.0, 187500.0, 0.04, -0.018000000000000002, 1.006, 192.0, 1.0, 64.0, 255.0, 112.0, 31.0, 112.0, 0.0, 0.0, 0.0, 1.6895994277854068E9, 0.0, 2023-07-17 15:10:27.785
31.0, -92.35740808932879, 187500.0, 187500.0, 187500.0, 187500.0, 187500.0, 187500.0, 187500.0, 0.04, -0.018000000000000002, 1.006, 192.0, 0.0, 0.0, 0.0, 0.0, 0.0, 0.0, 0.0, 0.0, 0.0, 1.6895994277854571E9, 0.0, 2023-07-17 15:10:27.785
32.0, -93.11736740080923, 187500.0, 187500.0, 187500.0, 187500.0, 187500.0, 187500.0, 187500.0, 0.04, -0.018000000000000002, 1.006, 192.0, 0.0, 0.0, 0.0, 0.0, 0.0, 0.0, 0.0, 0.0, 0.0, 1.689599427785499E9, 0.0, 2023-07-17 15:10:27.785
33.0, -106.3272483738957, 187500.0, 187500.0, 187500.0, 187500.0, 187500.0, 187500.0, 187500.0, 0.04, -0.018000000000000002, 1.006, 192.0, 0.0, 0.0, 0.0, 0.0, 0.0, 0.0, 0.0, 0.0, 0.0, 1.689599427785545E9, 0.0, 2023-07-17 15:10:27.785
34.0, -113.94919323315541, 187500.0, 187500.0, 187500.0, 187500.0, 187500.0, 187500.0, 187500.0, 0.04, -0.018000000000000002, 1.006, 192.0, 0.0, 0.0, 0.0, 0.0, 0.0, 0.0, 0.0, 0.0, 0.0, 1.68959942778559E9, 0.0, 2023-07-17 15:10:27.785
35.0, -105.81315825142363, 187500.0, 187500.0, 187500.0, 187500.0, 187500.0, 187500.0, 187500.0, 0.04, -0.018000000000000002, 1.006, 192.0, 0.0, 0.0, 0.0, 0.0, 0.0, 0.0, 0.0, 0.0, 0.0, 1.6895994277858431E9, 0.0, 2023-07-17 15:10:27.785
36.0, -93.09501565635392, 187500.0, 187500.0, 187500.0, 187500.0, 187500.0, 187500.0, 187500.0, 0.04, -0.018000000000000002, 1.006, 192.0, 0.0, 0.0, 0.0, 0.0, 0.0, 0.0, 0.0, 0.0, 0.0, 1.6895994277858922E9, 0.0, 2023-07-17 15:10:27.785
37.0, -93.76556799001312, 187500.0, 187500.0, 187500.0, 187500.0, 187500.0, 187500.0, 187500.0, 0.04, -0.018000000000000002, 1.006, 192.0, 0.0, 0.0, 0.0, 0.0, 0.0, 0.0, 0.0, 0.0, 0.0, 1.6895994277859383E9, 0.0, 2023-07-17 15:10:27.785
38.0, -106.0143239515214, 187500.0, 187500.0, 187500.0, 187500.0, 187500.0, 187500.0, 187500.0, 0.04, -0.018000000000000002, 1.006, 192.0, 0.0, 0.0, 0.0, 0.0, 0.0, 0.0, 0.0, 0.0, 0.0, 1.6895994277859848E9, 0.0, 2023-07-17 15:10:27.785
39.0, -113.79273102196825, 187500.0, 187500.0, 187500.0, 187500.0, 187500.0, 187500.0, 187500.0, 0.04, -0.018000000000000002, 1.006, 192.0, 0.0, 0.0, 0.0, 0.0, 0.0, 0.0, 0.0, 0.0, 0.0, 1.6895994277860355E9, 0.0, 2023-07-17 15:10:27.786
40.0, -106.14843441825325, 187500.0, 187500.0, 187500.0, 187500.0, 187500.0, 187500.0, 187500.0, 0.034, -0.016, 1.008, 192.0, 1.0, 16.0, 255.0, 128.0, 31.0, 128.0, 0.0, 0.0, 0.0, 1.6895994277860892E9, 0.0, 2023-07-17 15:10:27.786
41.0, -93.11736740080923, 187500.0, 187500.0, 187500.0, 187500.0, 187500.0, 187500.0, 187500.0, 0.034, -0.016, 1.008, 192.0, 0.0, 0.0, 0.0, 0.0, 0.0, 0.0, 0.0, 0.0, 0.0, 1.6895994277861433E9, 0.0, 2023-07-17 15:10:27.786
42.0, -92.89384995625615, 187500.0, 187500.0, 187500.0, 187500.0, 187500.0, 187500.0, 187500.0, 0.034, -0.016, 1.008, 192.0, 0.0, 0.0, 0.0, 0.0, 0.0, 0.0, 0.0, 0.0, 0.0, 1.689599427786192E9, 0.0, 2023-07-17 15:10:27.786
43.0, -105.88021348478955, 187500.0, 187500.0, 187500.0, 187500.0, 187500.0, 187500.0, 187500.0, 0.034, -0.016, 1.008, 192.0, 0.0, 0.0, 0.0, 0.0, 0.0, 0.0, 0.0, 0.0, 0.0, 1.6895994277862446E9, 0.0, 2023-07-17 15:10:27.786
44.0, -113.45745485513865, 187500.0, 187500.0, 187500.0, 187500.0, 187500.0, 187500.0, 187500.0, 0.034, -0.016, 1.008, 192.0, 0.0, 0.0, 0.0, 0.0, 0.0, 0.0, 0.0, 0.0, 0.0, 1.689599427786312E9, 0.0, 2023-07-17 15:10:27.786
45.0, -106.26019314052978, 187500.0, 187500.0, 187500.0, 187500.0, 187500.0, 187500.0, 187500.0, 0.034, -0.016, 1.008, 192.0, 0.0, 0.0, 0.0, 0.0, 0.0, 0.0, 0.0, 0.0, 0.0, 1.6895994277863677E9, 0.0, 2023-07-17 15:10:27.786
46.0, -93.25147786754107, 187500.0, 187500.0, 187500.0, 187500.0, 187500.0, 187500.0, 187500.0, 0.034, -0.016, 1.008, 192.0, 0.0, 0.0, 0.0, 0.0, 0.0, 0.0, 0.0, 0.0, 0.0, 1.689599427786422E9, 0.0, 2023-07-17 15:10:27.786
47.0, -93.78791973446843, 187500.0, 187500.0, 187500.0, 187500.0, 187500.0, 187500.0, 187500.0, 0.034, -0.016, 1.008, 192.0, 0.0, 0.0, 0.0, 0.0, 0.0, 0.0, 0.0, 0.0, 0.0, 1.689599427786472E9, 0.0, 2023-07-17 15:10:27.786
48.0, -106.28254488498509, 187500.0, 187500.0, 187500.0, 187500.0, 187500.0, 187500.0, 187500.0, 0.034, -0.016, 1.008, 192.0, 0.0, 0.0, 0.0, 0.0, 0.0, 0.0, 0.0, 0.0, 0.0, 1.6895994277865217E9, 0.0, 2023-07-17 15:10:27.786
49.0, -113.23393741058558, 187500.0, 187500.0, 187500.0, 187500.0, 187500.0, 187500.0, 187500.0, 0.034, -0.016, 1.008, 192.0, 0.0, 0.0, 0.0, 0.0, 0.0, 0.0, 0.0, 0.0, 0.0, 1.6895994277865767E9, 0.0, 2023-07-17 15:10:27.786
50.0, -105.25436464004096, 187500.0, 187500.0, 187500.0, 187500.0, 187500.0, 187500.0, 187500.0, 0.038, -0.022, 1.004, 192.0, 1.0, 48.0, 255.0, 80.0, 31.0, 96.0, 0.0, 0.0, 0.0, 1.6895994277866313E9, 0.0, 2023-07-17 15:10:27.786
51.0, -93.13971914526454, 187500.0, 187500.0, 187500.0, 187500.0, 187500.0, 187500.0, 187500.0, 0.038, -0.022, 1.004, 192.0, 0.0, 0.0, 0.0, 0.0, 0.0, 0.0, 0.0, 0.0, 0.0, 1.6895994277869246E9, 0.0, 2023-07-17 15:10:27.786
52.0, -93.81027147892374, 187500.0, 187500.0, 187500.0, 187500.0, 187500.0, 187500.0, 187500.0, 0.038, -0.022, 1.004, 192.0, 0.0, 0.0, 0.0, 0.0, 0.0, 0.0, 0.0, 0.0, 0.0, 1.6895994277869947E9, 0.0, 2023-07-17 15:10:27.786
53.0, -106.37195186280631, 187500.0, 187500.0, 187500.0, 187500.0, 187500.0, 187500.0, 187500.0, 0.038, -0.022, 1.004, 192.0, 0.0, 0.0, 0.0, 0.0, 0.0, 0.0, 0.0, 0.0, 0.0, 1.6895994277870605E9, 0.0, 2023-07-17 15:10:27.787
54.0, -114.03860021097664, 187500.0, 187500.0, 187500.0, 187500.0, 187500.0, 187500.0, 187500.0, 0.038, -0.022, 1.004, 192.0, 0.0, 0.0, 0.0, 0.0, 0.0, 0.0, 0.0, 0.0, 0.0, 1.68959942778712E9, 0.0, 2023-07-17 15:10:27.787
55.0, -105.9919722070661, 187500.0, 187500.0, 187500.0, 187500.0, 187500.0, 187500.0, 187500.0, 0.038, -0.022, 1.004, 192.0, 0.0, 0.0, 0.0, 0.0, 0.0, 0.0, 0.0, 0.0, 0.0, 1.6895994277871802E9, 0.0, 2023-07-17 15:10:27.787
56.0, -93.13971914526454, 187500.0, 187500.0, 187500.0, 187500.0, 187500.0, 187500.0, 187500.0, 0.038, -0.022, 1.004, 192.0, 0.0, 0.0, 0.0, 0.0, 0.0, 0.0, 0.0, 0.0, 0.0, 1.6895994277872376E9, 0.0, 2023-07-17 15:10:27.787
57.0, -93.78791973446843, 187500.0, 187500.0, 187500.0, 187500.0, 187500.0, 187500.0, 187500.0, 0.038, -0.022, 1.004, 192.0, 0.0, 0.0, 0.0, 0.0, 0.0, 0.0, 0.0, 0.0, 0.0, 1.689599427787304E9, 0.0, 2023-07-17 15:10:27.787
58.0, -106.03667569597671, 187500.0, 187500.0, 187500.0, 187500.0, 187500.0, 187500.0, 187500.0, 0.038, -0.022, 1.004, 192.0, 0.0, 0.0, 0.0, 0.0, 0.0, 0.0, 0.0, 0.0, 0.0, 1.6895994277873657E9, 0.0, 2023-07-17 15:10:27.787
59.0, -113.54686183295988, 187500.0, 187500.0, 187500.0, 187500.0, 187500.0, 187500.0, 187500.0, 0.038, -0.022, 1.004, 192.0, 0.0, 0.0, 0.0, 0.0, 0.0, 0.0, 0.0, 0.0, 0.0, 1.6895994277874267E9, 0.0, 2023-07-17 15:10:27.787
60.0, -105.81315825142363, 187500.0, 187500.0, 187500.0, 187500.0, 187500.0, 187500.0, 187500.0, 0.036000000000000004, -0.014, 1.002, 192.0, 1.0, 32.0, 255.0, 144.0, 31.0, 80.0, 0.0, 0.0, 0.0, 1.6895994277874951E9, 0.0, 2023-07-17 15:10:27.787
61.0, -94.0337889234768, 187500.0, 187500.0, 187500.0, 187500.0, 187500.0, 187500.0, 187500.0, 0.036000000000000004, -0.014, 1.002, 192.0, 0.0, 0.0, 0.0, 0.0, 0.0, 0.0, 0.0, 0.0, 0.0, 1.6895994277875657E9, 0.0, 2023-07-17 15:10:27.787
62.0, -93.92203020120027, 187500.0, 187500.0, 187500.0, 187500.0, 187500.0, 187500.0, 187500.0, 0.036000000000000004, -0.014, 1.002, 192.0, 0.0, 0.0, 0.0, 0.0, 0.0, 0.0, 0.0, 0.0, 0.0, 1.6895994277876294E9, 0.0, 2023-07-17 15:10:27.787
63.0, -105.63434429578118, 187500.0, 187500.0, 187500.0, 187500.0, 187500.0, 187500.0, 187500.0, 0.036000000000000004, -0.014, 1.002, 192.0, 0.0, 0.0, 0.0, 0.0, 0.0, 0.0, 0.0, 0.0, 0.0, 1.6895994277877116E9, 0.0, 2023-07-17 15:10:27.787
64.0, -113.47980659959396, 187500.0, 187500.0, 187500.0, 187500.0, 187500.0, 187500.0, 187500.0, 0.036000000000000004, -0.014, 1.002, 192.0, 0.0, 0.0, 0.0, 0.0, 0.0, 0.0, 0.0, 0.0, 0.0, 1.6895994277878027E9, 0.0, 2023-07-17 15:10:27.787
65.0, -105.85786174033424, 187500.0, 187500.0, 187500.0, 187500.0, 187500.0, 187500.0, 187500.0, 0.036000000000000004, -0.014, 1.002, 192.0, 0.0, 0.0, 0.0, 0.0, 0.0, 0.0, 0.0, 0.0, 0.0, 1.6895994277878885E9, 0.0, 2023-07-17 15:10:27.787
66.0, -92.4244633226947, 187500.0, 187500.0, 187500.0, 187500.0, 187500.0, 187500.0, 187500.0, 0.036000000000000004, -0.014, 1.002, 192.0, 0.0, 0.0, 0.0, 0.0, 0.0, 0.0, 0.0, 0.0, 0.0, 1.6895994277882764E9, 0.0, 2023-07-17 15:10:27.788
67.0, -93.38558833427291, 187500.0, 187500.0, 187500.0, 187500.0, 187500.0, 187500.0, 187500.0, 0.036000000000000004, -0.014, 1.002, 192.0, 0.0, 0.0, 0.0, 0.0, 0.0, 0.0, 0.0, 0.0, 0.0, 1.6895994277883694E9, 0.0, 2023-07-17 15:10:27.788
68.0, -105.61199255132587, 187500.0, 187500.0, 187500.0, 187500.0, 187500.0, 187500.0, 187500.0, 0.036000000000000004, -0.014, 1.002, 192.0, 0.0, 0.0, 0.0, 0.0, 0.0, 0.0, 0.0, 0.0, 0.0, 1.6895994277884552E9, 0.0, 2023-07-17 15:10:27.788
69.0, -113.79273102196825, 187500.0, 187500.0, 187500.0, 187500.0, 187500.0, 187500.0, 187500.0, 0.036000000000000004, -0.014, 1.002, 192.0, 0.0, 0.0, 0.0, 0.0, 0.0, 0.0, 0.0, 0.0, 0.0, 1.689599427788538E9, 0.0, 2023-07-17 15:10:27.788
70.0, -106.79663500745714, 187500.0, 187500.0, 187500.0, 187500.0, 187500.0, 187500.0, 187500.0, 0.034, -0.012, 1.008, 192.0, 1.0, 16.0, 255.0, 160.0, 31.0, 128.0, 0.0, 0.0, 0.0, 1.6895994277886293E9, 0.0, 2023-07-17 15:10:27.788
71.0, -93.89967845674497, 187500.0, 187500.0, 187500.0, 187500.0, 187500.0, 187500.0, 187500.0, 0.034, -0.012, 1.008, 192.0, 0.0, 0.0, 0.0, 0.0, 0.0, 0.0, 0.0, 0.0, 0.0, 1.689599427788738E9, 0.0, 2023-07-17 15:10:27.788
72.0, -93.40794007872822, 187500.0, 187500.0, 187500.0, 187500.0, 187500.0, 187500.0, 187500.0, 0.034, -0.012, 1.008, 192.0, 0.0, 0.0, 0.0, 0.0, 0.0, 0.0, 0.0, 0.0, 0.0, 1.6895994277888186E9, 0.0, 2023-07-17 15:10:27.788
73.0, -105.7013995291471, 187500.0, 187500.0, 187500.0, 187500.0, 187500.0, 187500.0, 187500.0, 0.034, -0.012, 1.008, 192.0, 0.0, 0.0, 0.0, 0.0, 0.0, 0.0, 0.0, 0.0, 0.0, 1.689599427788904E9, 0.0, 2023-07-17 15:10:27.788
74.0, -113.79273102196825, 187500.0, 187500.0, 187500.0, 187500.0, 187500.0, 187500.0, 187500.0, 0.034, -0.012, 1.008, 192.0, 0.0, 0.0, 0.0, 0.0, 0.0, 0.0, 0.0, 0.0, 0.0, 1.6895994277889872E9, 0.0, 2023-07-17 15:10:27.788
75.0, -106.28254488498509, 187500.0, 187500.0, 187500.0, 187500.0, 187500.0, 187500.0, 187500.0, 0.034, -0.012, 1.008, 192.0, 0.0, 0.0, 0.0, 0.0, 0.0, 0.0, 0.0, 0.0, 0.0, 1.689599427789058E9, 0.0, 2023-07-17 15:10:27.789
76.0, -93.56440228991536, 187500.0, 187500.0, 187500.0, 187500.0, 187500.0, 187500.0, 187500.0, 0.034, -0.012, 1.008, 192.0, 0.0, 0.0, 0.0, 0.0, 0.0, 0.0, 0.0, 0.0, 0.0, 1.6895994277891045E9, 0.0, 2023-07-17 15:10:27.789
77.0, -93.45264356763883, 187500.0, 187500.0, 187500.0, 187500.0, 187500.0, 187500.0, 187500.0, 0.034, -0.012, 1.008, 192.0, 0.0, 0.0, 0.0, 0.0, 0.0, 0.0, 0.0, 0.0, 0.0, 1.6895994277891552E9, 0.0, 2023-07-17 15:10:27.789
78.0, -106.37195186280631, 187500.0, 187500.0, 187500.0, 187500.0, 187500.0, 187500.0, 187500.0, 0.034, -0.012, 1.008, 192.0, 0.0, 0.0, 0.0, 0.0, 0.0, 0.0, 0.0, 0.0, 0.0, 1.689599427789215E9, 0.0, 2023-07-17 15:10:27.789
79.0, -113.83743451087886, 187500.0, 187500.0, 187500.0, 187500.0, 187500.0, 187500.0, 187500.0, 0.034, -0.012, 1.008, 192.0, 0.0, 0.0, 0.0, 0.0, 0.0, 0.0, 0.0, 0.0, 0.0, 1.689599427789271E9, 0.0, 2023-07-17 15:10:27.789
80.0, -105.85786174033424, 187500.0, 187500.0, 187500.0, 187500.0, 187500.0, 187500.0, 187500.0, 0.038, -0.016, 1.006, 192.0, 1.0, 48.0, 255.0, 128.0, 31.0, 112.0, 0.0, 0.0, 0.0, 1.6895994277893252E9, 0.0, 2023-07-17 15:10:27.789
81.0, -93.13971914526454, 187500.0, 187500.0, 187500.0, 187500.0, 187500.0, 187500.0, 187500.0, 0.038, -0.016, 1.006, 192.0, 0.0, 0.0, 0.0, 0.0, 0.0, 0.0, 0.0, 0.0, 0.0, 1.689599427789487E9, 0.0, 2023-07-17 15:10:27.789
82.0, -93.00560867853268, 187500.0, 187500.0, 187500.0, 187500.0, 187500.0, 187500.0, 187500.0, 0.038, -0.016, 1.006, 192.0, 0.0, 0.0, 0.0, 0.0, 0.0, 0.0, 0.0, 0.0, 0.0, 1.689599427789538E9, 0.0, 2023-07-17 15:10:27.789
83.0, -105.58964080687056, 187500.0, 187500.0, 187500.0, 187500.0, 187500.0, 187500.0, 187500.0, 0.038, -0.016, 1.006, 192.0, 0.0, 0.0, 0.0, 0.0, 0.0, 0.0, 0.0, 0.0, 0.0, 1.6895994277895868E9, 0.0, 2023-07-17 15:10:27.789
84.0, -114.32917288889563, 187500.0, 187500.0, 187500.0, 187500.0, 187500.0, 187500.0, 187500.0, 0.038, -0.016, 1.006, 192.0, 0.0, 0.0, 0.0, 0.0, 0.0, 0.0, 0.0, 0.0, 0.0, 1.689599427789636E9, 0.0, 2023-07-17 15:10:27.789
85.0, -106.64017279627, 187500.0, 187500.0, 187500.0, 187500.0, 187500.0, 187500.0, 187500.0, 0.038, -0.016, 1.006, 192.0, 0.0, 0.0, 0.0, 0.0, 0.0, 0.0, 0.0, 0.0, 0.0, 1.6895994277896895E9, 0.0, 2023-07-17 15:10:27.789
86.0, -93.31853310090699, 187500.0, 187500.0, 187500.0, 187500.0, 187500.0, 187500.0, 187500.0, 0.038, -0.016, 1.006, 192.0, 0.0, 0.0, 0.0, 0.0, 0.0, 0.0, 0.0, 0.0, 0.0, 1.6895994277897396E9, 0.0, 2023-07-17 15:10:27.789
87.0, -92.91620170071145, 187500.0, 187500.0, 187500.0, 187500.0, 187500.0, 187500.0, 187500.0, 0.038, -0.016, 1.006, 192.0, 0.0, 0.0, 0.0, 0.0, 0.0, 0.0, 0.0, 0.0, 0.0, 1.6895994277897928E9, 0.0, 2023-07-17 15:10:27.789
88.0, -105.07555068439851, 187500.0, 187500.0, 187500.0, 187500.0, 187500.0, 187500.0, 187500.0, 0.038, -0.016, 1.006, 192.0, 0.0, 0.0, 0.0, 0.0, 0.0, 0.0, 0.0, 0.0, 0.0, 1.6895994277898428E9, 0.0, 2023-07-17 15:10:27.789
89.0, -113.34569613286212, 187500.0, 187500.0, 187500.0, 187500.0, 187500.0, 187500.0, 187500.0, 0.038, -0.016, 1.006, 192.0, 0.0, 0.0, 0.0, 0.0, 0.0, 0.0, 0.0, 0.0, 0.0, 1.6895994277898853E9, 0.0, 2023-07-17 15:10:27.789
90.0, -106.39430360726162, 187500.0, 187500.0, 187500.0, 187500.0, 187500.0, 187500.0, 187500.0, 0.036000000000000004, -0.016, 1.004, 192.0, 1.0, 32.0, 255.0, 128.0, 31.0, 96.0, 0.0, 0.0, 0.0, 1.6895994277899272E9, 0.0, 2023-07-17 15:10:27.789
91.0, -93.40794007872822, 187500.0, 187500.0, 187500.0, 187500.0, 187500.0, 187500.0, 187500.0, 0.036000000000000004, -0.016, 1.004, 192.0, 0.0, 0.0, 0.0, 0.0, 0.0, 0.0, 0.0, 0.0, 0.0, 1.6895994277899728E9, 0.0, 2023-07-17 15:10:27.789
92.0, -93.6761610121919, 187500.0, 187500.0, 187500.0, 187500.0, 187500.0, 187500.0, 187500.0, 0.036000000000000004, -0.016, 1.004, 192.0, 0.0, 0.0, 0.0, 0.0, 0.0, 0.0, 0.0, 0.0, 0.0, 1.6895994277900176E9, 0.0, 2023-07-17 15:10:27.790
93.0, -106.17078616270855, 187500.0, 187500.0, 187500.0, 187500.0, 187500.0, 187500.0, 187500.0, 0.036000000000000004, -0.016, 1.004, 192.0, 0.0, 0.0, 0.0, 0.0, 0.0, 0.0, 0.0, 0.0, 0.0, 1.6895994277900631E9, 0.0, 2023-07-17 15:10:27.790
94.0, -113.59156532187049, 187500.0, 187500.0, 187500.0, 187500.0, 187500.0, 187500.0, 187500.0, 0.036000000000000004, -0.016, 1.004, 192.0, 0.0, 0.0, 0.0, 0.0, 0.0, 0.0, 0.0, 0.0, 0.0, 1.6895994277901099E9, 0.0, 2023-07-17 15:10:27.790
95.0, -106.9754489630996, 187500.0, 187500.0, 187500.0, 187500.0, 187500.0, 187500.0, 187500.0, 0.036000000000000004, -0.016, 1.004, 192.0, 0.0, 0.0, 0.0, 0.0, 0.0, 0.0, 0.0, 0.0, 0.0, 1.689599427790216E9, 0.0, 2023-07-17 15:10:27.790
96.0, -93.13971914526454, 187500.0, 187500.0, 187500.0, 187500.0, 187500.0, 187500.0, 187500.0, 0.036000000000000004, -0.016, 1.004, 192.0, 0.0, 0.0, 0.0, 0.0, 0.0, 0.0, 0.0, 0.0, 0.0, 1.6895994277902627E9, 0.0, 2023-07-17 15:10:27.790
97.0, -92.84914646734553, 187500.0, 187500.0, 187500.0, 187500.0, 187500.0, 187500.0, 187500.0, 0.036000000000000004, -0.016, 1.004, 192.0, 0.0, 0.0, 0.0, 0.0, 0.0, 0.0, 0.0, 0.0, 0.0, 1.6895994277903774E9, 0.0, 2023-07-17 15:10:27.790
98.0, -105.61199255132587, 187500.0, 187500.0, 187500.0, 187500.0, 187500.0, 187500.0, 187500.0, 0.036000000000000004, -0.016, 1.004, 192.0, 0.0, 0.0, 0.0, 0.0, 0.0, 0.0, 0.0, 0.0, 0.0, 1.6895994277904265E9, 0.0, 2023-07-17 15:10:27.790
99.0, -113.43510311068334, 187500.0, 187500.0, 187500.0, 187500.0, 187500.0, 187500.0, 187500.0, 0.036000000000000004, -0.016, 1.004, 192.0, 0.0, 0.0, 0.0, 0.0, 0.0, 0.0, 0.0, 0.0, 0.0, 1.689599427790473E9, 0.0, 2023-07-17 15:10:27.790
100.0, -106.12608267379794, 187500.0, 187500.0, 187500.0, 187500.0, 187500.0, 187500.0, 187500.0, 0.038, -0.022, 1.002, 192.0, 1.0, 48.0, 255.0, 80.0, 31.0, 80.0, 0.0, 0.0, 0.0, 1.6895994277905204E9, 0.0, 2023-07-17 15:10:27.790
101.0, -93.60910577882598, 187500.0, 187500.0, 187500.0, 187500.0, 187500.0, 187500.0, 187500.0, 0.038, -0.022, 1.002, 192.0, 0.0, 0.0, 0.0, 0.0, 0.0, 0.0, 0.0, 0.0, 0.0, 1.6895994277905705E9, 0.0, 2023-07-17 15:10:27.790
102.0, -93.78791973446843, 187500.0, 187500.0, 187500.0, 187500.0, 187500.0, 187500.0, 187500.0, 0.038, -0.022, 1.002, 192.0, 0.0, 0.0, 0.0, 0.0, 0.0, 0.0, 0.0, 0.0, 0.0, 1.6895994277906177E9, 0.0, 2023-07-17 15:10:27.790
103.0, -105.85786174033424, 187500.0, 187500.0, 187500.0, 187500.0, 187500.0, 187500.0, 187500.0, 0.038, -0.022, 1.002, 192.0, 0.0, 0.0, 0.0, 0.0, 0.0, 0.0, 0.0, 0.0, 0.0, 1.6895994277906644E9, 0.0, 2023-07-17 15:10:27.790
104.0, -114.15035893325317, 187500.0, 187500.0, 187500.0, 187500.0, 187500.0, 187500.0, 187500.0, 0.038, -0.022, 1.002, 192.0, 0.0, 0.0, 0.0, 0.0, 0.0, 0.0, 0.0, 0.0, 0.0, 1.6895994277907107E9, 0.0, 2023-07-17 15:10:27.790
105.0, -106.28254488498509, 187500.0, 187500.0, 187500.0, 187500.0, 187500.0, 187500.0, 187500.0, 0.038, -0.022, 1.002, 192.0, 0.0, 0.0, 0.0, 0.0, 0.0, 0.0, 0.0, 0.0, 0.0, 1.6895994282583065E9, 0.0, 2023-07-17 15:10:28.258
106.0, -93.3408848453623, 187500.0, 187500.0, 187500.0, 187500.0, 187500.0, 187500.0, 187500.0, 0.038, -0.022, 1.002, 192.0, 0.0, 0.0, 0.0, 0.0, 0.0, 0.0, 0.0, 0.0, 0.0, 1.6895994282584753E9, 0.0, 2023-07-17 15:10:28.258
107.0, -93.47499531209414, 187500.0, 187500.0, 187500.0, 187500.0, 187500.0, 187500.0, 187500.0, 0.038, -0.022, 1.002, 192.0, 0.0, 0.0, 0.0, 0.0, 0.0, 0.0, 0.0, 0.0, 0.0, 1.689599428258541E9, 0.0, 2023-07-17 15:10:28.258
108.0, -105.43317859568342, 187500.0, 187500.0, 187500.0, 187500.0, 187500.0, 187500.0, 187500.0, 0.038, -0.022, 1.002, 192.0, 0.0, 0.0, 0.0, 0.0, 0.0, 0.0, 0.0, 0.0, 0.0, 1.6895994282585845E9, 0.0, 2023-07-17 15:10:28.258
109.0, -113.90448974424478, 187500.0, 187500.0, 187500.0, 187500.0, 187500.0, 187500.0, 187500.0, 0.038, -0.022, 1.002, 192.0, 0.0, 0.0, 0.0, 0.0, 0.0, 0.0, 0.0, 0.0, 0.0, 1.6895994282586286E9, 0.0, 2023-07-17 15:10:28.258
110.0, -106.84133849636775, 187500.0, 187500.0, 187500.0, 187500.0, 187500.0, 187500.0, 187500.0, 0.03, -0.026000000000000002, 0.998, 192.0, 0.0, 240.0, 255.0, 48.0, 31.0, 48.0, 0.0, 0.0, 0.0, 1.689599428258685E9, 0.0, 2023-07-17 15:10:28.258
111.0, -94.19025113466397, 187500.0, 187500.0, 187500.0, 187500.0, 187500.0, 187500.0, 187500.0, 0.03, -0.026000000000000002, 0.998, 192.0, 0.0, 0.0, 0.0, 0.0, 0.0, 0.0, 0.0, 0.0, 0.0, 1.6895994282588053E9, 0.0, 2023-07-17 15:10:28.258
112.0, -93.43029182318352, 187500.0, 187500.0, 187500.0, 187500.0, 187500.0, 187500.0, 187500.0, 0.03, -0.026000000000000002, 0.998, 192.0, 0.0, 0.0, 0.0, 0.0, 0.0, 0.0, 0.0, 0.0, 0.0, 1.6895994282591228E9, 0.0, 2023-07-17 15:10:28.259
113.0, -105.09790242885381, 187500.0, 187500.0, 187500.0, 187500.0, 187500.0, 187500.0, 187500.0, 0.03, -0.026000000000000002, 0.998, 192.0, 0.0, 0.0, 0.0, 0.0, 0.0, 0.0, 0.0, 0.0, 0.0, 1.689599428259194E9, 0.0, 2023-07-17 15:10:28.259
114.0, -113.43510311068334, 187500.0, 187500.0, 187500.0, 187500.0, 187500.0, 187500.0, 187500.0, 0.03, -0.026000000000000002, 0.998, 192.0, 0.0, 0.0, 0.0, 0.0, 0.0, 0.0, 0.0, 0.0, 0.0, 1.6895994282592485E9, 0.0, 2023-07-17 15:10:28.259
115.0, -106.64017279627, 187500.0, 187500.0, 187500.0, 187500.0, 187500.0, 187500.0, 187500.0, 0.03, -0.026000000000000002, 0.998, 192.0, 0.0, 0.0, 0.0, 0.0, 0.0, 0.0, 0.0, 0.0, 0.0, 1.6895994282592957E9, 0.0, 2023-07-17 15:10:28.259
116.0, -93.98908543456619, 187500.0, 187500.0, 187500.0, 187500.0, 187500.0, 187500.0, 187500.0, 0.03, -0.026000000000000002, 0.998, 192.0, 0.0, 0.0, 0.0, 0.0, 0.0, 0.0, 0.0, 0.0, 0.0, 1.6895994282593448E9, 0.0, 2023-07-17 15:10:28.259
117.0, -92.96090518962207, 187500.0, 187500.0, 187500.0, 187500.0, 187500.0, 187500.0, 187500.0, 0.03, -0.026000000000000002, 0.998, 192.0, 0.0, 0.0, 0.0, 0.0, 0.0, 0.0, 0.0, 0.0, 0.0, 1.6895994282593951E9, 0.0, 2023-07-17 15:10:28.259
118.0, -105.63434429578118, 187500.0, 187500.0, 187500.0, 187500.0, 187500.0, 187500.0, 187500.0, 0.03, -0.026000000000000002, 0.998, 192.0, 0.0, 0.0, 0.0, 0.0, 0.0, 0.0, 0.0, 0.0, 0.0, 1.6895994282594483E9, 0.0, 2023-07-17 15:10:28.259
119.0, -113.90448974424478, 187500.0, 187500.0, 187500.0, 187500.0, 187500.0, 187500.0, 187500.0, 0.03, -0.026000000000000002, 0.998, 192.0, 0.0, 0.0, 0.0, 0.0, 0.0, 0.0, 0.0, 0.0, 0.0, 1.6895994282594995E9, 0.0, 2023-07-17 15:10:28.259
120.0, -106.37195186280631, 187500.0, 187500.0, 187500.0, 187500.0, 187500.0, 187500.0, 187500.0, 0.03, -0.02, 1.0, 192.0, 0.0, 240.0, 255.0, 96.0, 31.0, 64.0, 0.0, 0.0, 0.0, 1.6895994282595482E9, 0.0, 2023-07-17 15:10:28.259
121.0, -93.74321624555782, 187500.0, 187500.0, 187500.0, 187500.0, 187500.0, 187500.0, 187500.0, 0.03, -0.02, 1.0, 192.0, 0.0, 0.0, 0.0, 0.0, 0.0, 0.0, 0.0, 0.0, 0.0, 1.689599428259658E9, 0.0, 2023-07-17 15:10:28.259
122.0, -93.49734705654944, 187500.0, 187500.0, 187500.0, 187500.0, 187500.0, 187500.0, 187500.0, 0.03, -0.02, 1.0, 192.0, 0.0, 0.0, 0.0, 0.0, 0.0, 0.0, 0.0, 0.0, 0.0, 1.689599428259709E9, 0.0, 2023-07-17 15:10:28.259
123.0, -105.74610301805771, 187500.0, 187500.0, 187500.0, 187500.0, 187500.0, 187500.0, 187500.0, 0.03, -0.02, 1.0, 192.0, 0.0, 0.0, 0.0, 0.0, 0.0, 0.0, 0.0, 0.0, 0.0, 1.6895994282597773E9, 0.0, 2023-07-17 15:10:28.259
124.0, -114.30682114444032, 187500.0, 187500.0, 187500.0, 187500.0, 187500.0, 187500.0, 187500.0, 0.03, -0.02, 1.0, 192.0, 0.0, 0.0, 0.0, 0.0, 0.0, 0.0, 0.0, 0.0, 0.0, 1.6895994282598553E9, 0.0, 2023-07-17 15:10:28.259
125.0, -107.04250419646553, 187500.0, 187500.0, 187500.0, 187500.0, 187500.0, 187500.0, 187500.0, 0.03, -0.02, 1.0, 192.0, 0.0, 0.0, 0.0, 0.0, 0.0, 0.0, 0.0, 0.0, 0.0, 1.6895994282619636E9, 0.0, 2023-07-17 15:10:28.261
126.0, -93.89967845674497, 187500.0, 187500.0, 187500.0, 187500.0, 187500.0, 187500.0, 187500.0, 0.03, -0.02, 1.0, 192.0, 0.0, 0.0, 0.0, 0.0, 0.0, 0.0, 0.0, 0.0, 0.0, 1.6895994282620404E9, 0.0, 2023-07-17 15:10:28.262
127.0, -92.55857378942655, 187500.0, 187500.0, 187500.0, 187500.0, 187500.0, 187500.0, 187500.0, 0.03, -0.02, 1.0, 192.0, 0.0, 0.0, 0.0, 0.0, 0.0, 0.0, 0.0, 0.0, 0.0, 1.6895994282626758E9, 0.0, 2023-07-17 15:10:28.262
128.0, -104.40499835073929, 187500.0, 187500.0, 187500.0, 187500.0, 187500.0, 187500.0, 187500.0, 0.03, -0.02, 1.0, 192.0, 0.0, 0.0, 0.0, 0.0, 0.0, 0.0, 0.0, 0.0, 0.0, 1.6895994282627525E9, 0.0, 2023-07-17 15:10:28.262
129.0, -113.47980659959396, 187500.0, 187500.0, 187500.0, 187500.0, 187500.0, 187500.0, 187500.0, 0.032, -0.022, 0.998, 192.0, 1.0, 0.0, 255.0, 80.0, 31.0, 48.0, 0.0, 0.0, 0.0, 1.6895994282628467E9, 0.0, 2023-07-17 15:10:28.262
130.0, -106.86369024082306, 187500.0, 187500.0, 187500.0, 187500.0, 187500.0, 187500.0, 187500.0, 0.032, -0.022, 0.998, 192.0, 0.0, 0.0, 0.0, 0.0, 0.0, 0.0, 0.0, 0.0, 0.0, 1.6895994282630315E9, 0.0, 2023-07-17 15:10:28.263
131.0, -93.76556799001312, 187500.0, 187500.0, 187500.0, 187500.0, 187500.0, 187500.0, 187500.0, 0.032, -0.022, 0.998, 192.0, 0.0, 0.0, 0.0, 0.0, 0.0, 0.0, 0.0, 0.0, 0.0, 1.689599428263111E9, 0.0, 2023-07-17 15:10:28.263
132.0, -92.84914646734553, 187500.0, 187500.0, 187500.0, 187500.0, 187500.0, 187500.0, 187500.0, 0.032, -0.022, 0.998, 192.0, 0.0, 0.0, 0.0, 0.0, 0.0, 0.0, 0.0, 0.0, 0.0, 1.689599428267048E9, 0.0, 2023-07-17 15:10:28.267
133.0, -104.85203323984543, 187500.0, 187500.0, 187500.0, 187500.0, 187500.0, 187500.0, 187500.0, 0.032, -0.022, 0.998, 192.0, 0.0, 0.0, 0.0, 0.0, 0.0, 0.0, 0.0, 0.0, 0.0, 1.6895994282671921E9, 0.0, 2023-07-17 15:10:28.267
134.0, -113.70332404414702, 187500.0, 187500.0, 187500.0, 187500.0, 187500.0, 187500.0, 187500.0, 0.032, -0.022, 0.998, 192.0, 0.0, 0.0, 0.0, 0.0, 0.0, 0.0, 0.0, 0.0, 0.0, 1.6895994282672548E9, 0.0, 2023-07-17 15:10:28.267
135.0, -107.08720768537614, 187500.0, 187500.0, 187500.0, 187500.0, 187500.0, 187500.0, 187500.0, 0.032, -0.022, 0.998, 192.0, 0.0, 0.0, 0.0, 0.0, 0.0, 0.0, 0.0, 0.0, 0.0, 1.689599428267308E9, 0.0, 2023-07-17 15:10:28.267
136.0, -94.19025113466397, 187500.0, 187500.0, 187500.0, 187500.0, 187500.0, 187500.0, 187500.0, 0.032, -0.022, 0.998, 192.0, 0.0, 0.0, 0.0, 0.0, 0.0, 0.0, 0.0, 0.0, 0.0, 1.689599428267361E9, 0.0, 2023-07-17 15:10:28.267
137.0, -93.02796042298799, 187500.0, 187500.0, 187500.0, 187500.0, 187500.0, 187500.0, 187500.0, 0.032, -0.022, 0.998, 192.0, 0.0, 0.0, 0.0, 0.0, 0.0, 0.0, 0.0, 0.0, 0.0, 1.689599428267409E9, 0.0, 2023-07-17 15:10:28.267
138.0, -104.94144021766665, 187500.0, 187500.0, 187500.0, 187500.0, 187500.0, 187500.0, 187500.0, 0.032, -0.022, 0.998, 192.0, 0.0, 0.0, 0.0, 0.0, 0.0, 0.0, 0.0, 0.0, 0.0, 1.6895994282674575E9, 0.0, 2023-07-17 15:10:28.267
139.0, -113.45745485513865, 187500.0, 187500.0, 187500.0, 187500.0, 187500.0, 187500.0, 187500.0, 0.038, -0.022, 1.0, 192.0, 1.0, 48.0, 255.0, 80.0, 31.0, 64.0, 0.0, 0.0, 0.0, 1.689599428267506E9, 0.0, 2023-07-17 15:10:28.267
140.0, -107.2883733854739, 187500.0, 187500.0, 187500.0, 187500.0, 187500.0, 187500.0, 187500.0, 0.038, -0.022, 1.0, 192.0, 0.0, 0.0, 0.0, 0.0, 0.0, 0.0, 0.0, 0.0, 0.0, 1.6895994282675648E9, 0.0, 2023-07-17 15:10:28.267
141.0, -93.58675403437067, 187500.0, 187500.0, 187500.0, 187500.0, 187500.0, 187500.0, 187500.0, 0.038, -0.022, 1.0, 192.0, 0.0, 0.0, 0.0, 0.0, 0.0, 0.0, 0.0, 0.0, 0.0, 1.689599428267616E9, 0.0, 2023-07-17 15:10:28.267
142.0, -93.00560867853268, 187500.0, 187500.0, 187500.0, 187500.0, 187500.0, 187500.0, 187500.0, 0.038, -0.022, 1.0, 192.0, 0.0, 0.0, 0.0, 0.0, 0.0, 0.0, 0.0, 0.0, 0.0, 1.6895994282679098E9, 0.0, 2023-07-17 15:10:28.267
143.0, -105.27671638449627, 187500.0, 187500.0, 187500.0, 187500.0, 187500.0, 187500.0, 187500.0, 0.038, -0.022, 1.0, 192.0, 0.0, 0.0, 0.0, 0.0, 0.0, 0.0, 0.0, 0.0, 0.0, 1.689599428267969E9, 0.0, 2023-07-17 15:10:28.267
144.0, -113.36804787731742, 187500.0, 187500.0, 187500.0, 187500.0, 187500.0, 187500.0, 187500.0, 0.038, -0.022, 1.0, 192.0, 0.0, 0.0, 0.0, 0.0, 0.0, 0.0, 0.0, 0.0, 0.0, 1.689599428268026E9, 0.0, 2023-07-17 15:10:28.268
145.0, -106.64017279627, 187500.0, 187500.0, 187500.0, 187500.0, 187500.0, 187500.0, 187500.0, 0.038, -0.022, 1.0, 192.0, 0.0, 0.0, 0.0, 0.0, 0.0, 0.0, 0.0, 0.0, 0.0, 1.6895994282680907E9, 0.0, 2023-07-17 15:10:28.268
146.0, -93.27382961199638, 187500.0, 187500.0, 187500.0, 187500.0, 187500.0, 187500.0, 187500.0, 0.038, -0.022, 1.0, 192.0, 0.0, 0.0, 0.0, 0.0, 0.0, 0.0, 0.0, 0.0, 0.0, 1.6895994282681806E9, 0.0, 2023-07-17 15:10:28.268
147.0, -93.18442263417515, 187500.0, 187500.0, 187500.0, 187500.0, 187500.0, 187500.0, 187500.0, 0.038, -0.022, 1.0, 192.0, 0.0, 0.0, 0.0, 0.0, 0.0, 0.0, 0.0, 0.0, 0.0, 1.6895994282682693E9, 0.0, 2023-07-17 15:10:28.268
148.0, -104.98614370657727, 187500.0, 187500.0, 187500.0, 187500.0, 187500.0, 187500.0, 187500.0, 0.038, -0.022, 1.0, 192.0, 0.0, 0.0, 0.0, 0.0, 0.0, 0.0, 0.0, 0.0, 0.0, 1.6895994282683573E9, 0.0, 2023-07-17 15:10:28.268
149.0, -113.41275136622804, 187500.0, 187500.0, 187500.0, 187500.0, 187500.0, 187500.0, 187500.0, 0.038, -0.016, 1.002, 192.0, 1.0, 48.0, 255.0, 128.0, 31.0, 80.0, 0.0, 0.0, 0.0, 1.689599428268442E9, 0.0, 2023-07-17 15:10:28.268
150.0, -106.70722802963591, 187500.0, 187500.0, 187500.0, 187500.0, 187500.0, 187500.0, 187500.0, 0.038, -0.016, 1.002, 192.0, 0.0, 0.0, 0.0, 0.0, 0.0, 0.0, 0.0, 0.0, 0.0, 1.6895994282685263E9, 0.0, 2023-07-17 15:10:28.268
151.0, -94.25730636802989, 187500.0, 187500.0, 187500.0, 187500.0, 187500.0, 187500.0, 187500.0, 0.038, -0.016, 1.002, 192.0, 0.0, 0.0, 0.0, 0.0, 0.0, 0.0, 0.0, 0.0, 0.0, 1.6895994282686136E9, 0.0, 2023-07-17 15:10:28.268
152.0, -93.18442263417515, 187500.0, 187500.0, 187500.0, 187500.0, 187500.0, 187500.0, 187500.0, 0.038, -0.016, 1.002, 192.0, 0.0, 0.0, 0.0, 0.0, 0.0, 0.0, 0.0, 0.0, 0.0, 1.6895994282686715E9, 0.0, 2023-07-17 15:10:28.268
153.0, -105.16495766221973, 187500.0, 187500.0, 187500.0, 187500.0, 187500.0, 187500.0, 187500.0, 0.038, -0.016, 1.002, 192.0, 0.0, 0.0, 0.0, 0.0, 0.0, 0.0, 0.0, 0.0, 0.0, 1.6895994282687984E9, 0.0, 2023-07-17 15:10:28.268
154.0, -113.52451008850457, 187500.0, 187500.0, 187500.0, 187500.0, 187500.0, 187500.0, 187500.0, 0.038, -0.016, 1.002, 192.0, 0.0, 0.0, 0.0, 0.0, 0.0, 0.0, 0.0, 0.0, 0.0, 1.6895994282688615E9, 0.0, 2023-07-17 15:10:28.268
155.0, -107.64600129675881, 187500.0, 187500.0, 187500.0, 187500.0, 187500.0, 187500.0, 187500.0, 0.038, -0.016, 1.002, 192.0, 0.0, 0.0, 0.0, 0.0, 0.0, 0.0, 0.0, 0.0, 0.0, 1.6895994282689252E9, 0.0, 2023-07-17 15:10:28.268
156.0, -94.59258253485949, 187500.0, 187500.0, 187500.0, 187500.0, 187500.0, 187500.0, 187500.0, 0.038, -0.016, 1.002, 192.0, 0.0, 0.0, 0.0, 0.0, 0.0, 0.0, 0.0, 0.0, 0.0, 1.689599428268983E9, 0.0, 2023-07-17 15:10:28.268
157.0, -92.7597394895243, 187500.0, 187500.0, 187500.0, 187500.0, 187500.0, 187500.0, 187500.0, 0.038, -0.016, 1.002, 192.0, 0.0, 0.0, 0.0, 0.0, 0.0, 0.0, 0.0, 0.0, 0.0, 1.6895994282690268E9, 0.0, 2023-07-17 15:10:28.269
158.0, -104.69557102865828, 187500.0, 187500.0, 187500.0, 187500.0, 187500.0, 187500.0, 187500.0, 0.038, -0.016, 1.002, 192.0, 0.0, 0.0, 0.0, 0.0, 0.0, 0.0, 0.0, 0.0, 0.0, 1.689599428269252E9, 0.0, 2023-07-17 15:10:28.269
159.0, -114.12800718879787, 187500.0, 187500.0, 187500.0, 187500.0, 187500.0, 187500.0, 187500.0, 0.034, -0.022, 1.002, 192.0, 1.0, 16.0, 255.0, 80.0, 31.0, 80.0, 0.0, 0.0, 0.0, 1.6895994282693095E9, 0.0, 2023-07-17 15:10:28.269
160.0, -107.33307687438452, 187500.0, 187500.0, 187500.0, 187500.0, 187500.0, 187500.0, 187500.0, 0.034, -0.022, 1.002, 192.0, 0.0, 0.0, 0.0, 0.0, 0.0, 0.0, 0.0, 0.0, 0.0, 1.6895994282693844E9, 0.0, 2023-07-17 15:10:28.269
161.0, -93.81027147892374, 187500.0, 187500.0, 187500.0, 187500.0, 187500.0, 187500.0, 187500.0, 0.034, -0.022, 1.002, 192.0, 0.0, 0.0, 0.0, 0.0, 0.0, 0.0, 0.0, 0.0, 0.0, 1.6895994282694404E9, 0.0, 2023-07-17 15:10:28.269
162.0, -92.11153890032041, 187500.0, 187500.0, 187500.0, 187500.0, 187500.0, 187500.0, 187500.0, 0.034, -0.022, 1.002, 192.0, 0.0, 0.0, 0.0, 0.0, 0.0, 0.0, 0.0, 0.0, 0.0, 1.689599428269496E9, 0.0, 2023-07-17 15:10:28.269
163.0, -103.95796346163314, 187500.0, 187500.0, 187500.0, 187500.0, 187500.0, 187500.0, 187500.0, 0.034, -0.022, 1.002, 192.0, 0.0, 0.0, 0.0, 0.0, 0.0, 0.0, 0.0, 0.0, 0.0, 1.6895994282695534E9, 0.0, 2023-07-17 15:10:28.269
164.0, -113.34569613286212, 187500.0, 187500.0, 187500.0, 187500.0, 187500.0, 187500.0, 187500.0, 0.034, -0.022, 1.002, 192.0, 0.0, 0.0, 0.0, 0.0, 0.0, 0.0, 0.0, 0.0, 0.0, 1.6895994282696192E9, 0.0, 2023-07-17 15:10:28.269
165.0, -107.42248385220574, 187500.0, 187500.0, 187500.0, 187500.0, 187500.0, 187500.0, 187500.0, 0.034, -0.022, 1.002, 192.0, 0.0, 0.0, 0.0, 0.0, 0.0, 0.0, 0.0, 0.0, 0.0, 1.689599428269668E9, 0.0, 2023-07-17 15:10:28.269
166.0, -94.48082381258295, 187500.0, 187500.0, 187500.0, 187500.0, 187500.0, 187500.0, 187500.0, 0.034, -0.022, 1.002, 192.0, 0.0, 0.0, 0.0, 0.0, 0.0, 0.0, 0.0, 0.0, 0.0, 1.6895994282697172E9, 0.0, 2023-07-17 15:10:28.269
167.0, -92.7597394895243, 187500.0, 187500.0, 187500.0, 187500.0, 187500.0, 187500.0, 187500.0, 0.034, -0.022, 1.002, 192.0, 0.0, 0.0, 0.0, 0.0, 0.0, 0.0, 0.0, 0.0, 0.0, 1.6895994282697568E9, 0.0, 2023-07-17 15:10:28.269
168.0, -104.74027451756889, 187500.0, 187500.0, 187500.0, 187500.0, 187500.0, 187500.0, 187500.0, 0.034, -0.022, 1.002, 192.0, 0.0, 0.0, 0.0, 0.0, 0.0, 0.0, 0.0, 0.0, 0.0, 1.6895994282697961E9, 0.0, 2023-07-17 15:10:28.269
169.0, -113.79273102196825, 187500.0, 187500.0, 187500.0, 187500.0, 187500.0, 187500.0, 187500.0, 0.038, -0.016, 1.004, 192.0, 1.0, 48.0, 255.0, 128.0, 31.0, 96.0, 0.0, 0.0, 0.0, 1.6895994282698393E9, 0.0, 2023-07-17 15:10:28.269
170.0, -107.40013210775044, 187500.0, 187500.0, 187500.0, 187500.0, 187500.0, 187500.0, 187500.0, 0.038, -0.016, 1.004, 192.0, 0.0, 0.0, 0.0, 0.0, 0.0, 0.0, 0.0, 0.0, 0.0, 1.6895994282719705E9, 0.0, 2023-07-17 15:10:28.271
171.0, -93.72086450110251, 187500.0, 187500.0, 187500.0, 187500.0, 187500.0, 187500.0, 187500.0, 0.038, -0.016, 1.004, 192.0, 0.0, 0.0, 0.0, 0.0, 0.0, 0.0, 0.0, 0.0, 0.0, 1.6895994282720509E9, 0.0, 2023-07-17 15:10:28.272
172.0, -92.29035285596287, 187500.0, 187500.0, 187500.0, 187500.0, 187500.0, 187500.0, 187500.0, 0.038, -0.016, 1.004, 192.0, 0.0, 0.0, 0.0, 0.0, 0.0, 0.0, 0.0, 0.0, 0.0, 1.6895994282735121E9, 0.0, 2023-07-17 15:10:28.273
173.0, -104.29323962846276, 187500.0, 187500.0, 187500.0, 187500.0, 187500.0, 187500.0, 187500.0, 0.038, -0.016, 1.004, 192.0, 0.0, 0.0, 0.0, 0.0, 0.0, 0.0, 0.0, 0.0, 0.0, 1.6895994282742083E9, 0.0, 2023-07-17 15:10:28.274
174.0, -113.07747519939844, 187500.0, 187500.0, 187500.0, 187500.0, 187500.0, 187500.0, 187500.0, 0.038, -0.016, 1.004, 192.0, 0.0, 0.0, 0.0, 0.0, 0.0, 0.0, 0.0, 0.0, 0.0, 1.6895994282744784E9, 0.0, 2023-07-17 15:10:28.274
175.0, -106.93074547418898, 187500.0, 187500.0, 187500.0, 187500.0, 187500.0, 187500.0, 187500.0, 0.038, -0.016, 1.004, 192.0, 0.0, 0.0, 0.0, 0.0, 0.0, 0.0, 0.0, 0.0, 0.0, 1.6895994282746708E9, 0.0, 2023-07-17 15:10:28.274
176.0, -94.2796581124852, 187500.0, 187500.0, 187500.0, 187500.0, 187500.0, 187500.0, 187500.0, 0.038, -0.016, 1.004, 192.0, 0.0, 0.0, 0.0, 0.0, 0.0, 0.0, 0.0, 0.0, 0.0, 1.6895994282747307E9, 0.0, 2023-07-17 15:10:28.274
177.0, -92.7150360006137, 187500.0, 187500.0, 187500.0, 187500.0, 187500.0, 187500.0, 187500.0, 0.038, -0.016, 1.004, 192.0, 0.0, 0.0, 0.0, 0.0, 0.0, 0.0, 0.0, 0.0, 0.0, 1.6895994282748375E9, 0.0, 2023-07-17 15:10:28.274
178.0, -104.47205358410521, 187500.0, 187500.0, 187500.0, 187500.0, 187500.0, 187500.0, 187500.0, 0.038, -0.016, 1.004, 192.0, 0.0, 0.0, 0.0, 0.0, 0.0, 0.0, 0.0, 0.0, 0.0, 1.6895994282749739E9, 0.0, 2023-07-17 15:10:28.274
179.0, -113.54686183295988, 187500.0, 187500.0, 187500.0, 187500.0, 187500.0, 187500.0, 187500.0, 0.036000000000000004, -0.012, 1.002, 192.0, 1.0, 32.0, 255.0, 160.0, 31.0, 80.0, 0.0, 0.0, 0.0, 1.6895994282750273E9, 0.0, 2023-07-17 15:10:28.275
180.0, -106.86369024082306, 187500.0, 187500.0, 187500.0, 187500.0, 187500.0, 187500.0, 187500.0, 0.036000000000000004, -0.012, 1.002, 192.0, 0.0, 0.0, 0.0, 0.0, 0.0, 0.0, 0.0, 0.0, 0.0, 1.6895994282753372E9, 0.0, 2023-07-17 15:10:28.275
181.0, -94.0114371790215, 187500.0, 187500.0, 187500.0, 187500.0, 187500.0, 187500.0, 187500.0, 0.036000000000000004, -0.012, 1.002, 192.0, 0.0, 0.0, 0.0, 0.0, 0.0, 0.0, 0.0, 0.0, 0.0, 1.6895994282754867E9, 0.0, 2023-07-17 15:10:28.275
182.0, -92.78209123397961, 187500.0, 187500.0, 187500.0, 187500.0, 187500.0, 187500.0, 187500.0, 0.036000000000000004, -0.012, 1.002, 192.0, 0.0, 0.0, 0.0, 0.0, 0.0, 0.0, 0.0, 0.0, 0.0, 1.6895994282755344E9, 0.0, 2023-07-17 15:10:28.275
183.0, -104.20383265064153, 187500.0, 187500.0, 187500.0, 187500.0, 187500.0, 187500.0, 187500.0, 0.036000000000000004, -0.012, 1.002, 192.0, 0.0, 0.0, 0.0, 0.0, 0.0, 0.0, 0.0, 0.0, 0.0, 1.6895994282755811E9, 0.0, 2023-07-17 15:10:28.275
184.0, -112.63044031029229, 187500.0, 187500.0, 187500.0, 187500.0, 187500.0, 187500.0, 187500.0, 0.036000000000000004, -0.012, 1.002, 192.0, 0.0, 0.0, 0.0, 0.0, 0.0, 0.0, 0.0, 0.0, 0.0, 1.6895994282756276E9, 0.0, 2023-07-17 15:10:28.275
185.0, -107.64600129675881, 187500.0, 187500.0, 187500.0, 187500.0, 187500.0, 187500.0, 187500.0, 0.036000000000000004, -0.012, 1.002, 192.0, 0.0, 0.0, 0.0, 0.0, 0.0, 0.0, 0.0, 0.0, 0.0, 1.689599428275674E9, 0.0, 2023-07-17 15:10:28.275
186.0, -94.41376857921703, 187500.0, 187500.0, 187500.0, 187500.0, 187500.0, 187500.0, 187500.0, 0.036000000000000004, -0.012, 1.002, 192.0, 0.0, 0.0, 0.0, 0.0, 0.0, 0.0, 0.0, 0.0, 0.0, 1.6895994282757196E9, 0.0, 2023-07-17 15:10:28.275
187.0, -92.4021115782394, 187500.0, 187500.0, 187500.0, 187500.0, 187500.0, 187500.0, 187500.0, 0.036000000000000004, -0.012, 1.002, 192.0, 0.0, 0.0, 0.0, 0.0, 0.0, 0.0, 0.0, 0.0, 0.0, 1.6895994282757654E9, 0.0, 2023-07-17 15:10:28.275
188.0, -104.18148090618622, 187500.0, 187500.0, 187500.0, 187500.0, 187500.0, 187500.0, 187500.0, 0.036000000000000004, -0.012, 1.002, 192.0, 0.0, 0.0, 0.0, 0.0, 0.0, 0.0, 0.0, 0.0, 0.0, 1.6895994282759352E9, 0.0, 2023-07-17 15:10:28.275
189.0, -113.3009926439515, 187500.0, 187500.0, 187500.0, 187500.0, 187500.0, 187500.0, 187500.0, 0.032, -0.016, 1.008, 192.0, 1.0, 0.0, 255.0, 128.0, 31.0, 128.0, 0.0, 0.0, 0.0, 1.689599428275982E9, 0.0, 2023-07-17 15:10:28.275
190.0, -107.10955942983145, 187500.0, 187500.0, 187500.0, 187500.0, 187500.0, 187500.0, 187500.0, 0.032, -0.016, 1.008, 192.0, 0.0, 0.0, 0.0, 0.0, 0.0, 0.0, 0.0, 0.0, 0.0, 1.6895994282760289E9, 0.0, 2023-07-17 15:10:28.276
191.0, -93.3632365898176, 187500.0, 187500.0, 187500.0, 187500.0, 187500.0, 187500.0, 187500.0, 0.032, -0.016, 1.008, 192.0, 0.0, 0.0, 0.0, 0.0, 0.0, 0.0, 0.0, 0.0, 0.0, 1.6895994282761028E9, 0.0, 2023-07-17 15:10:28.276
192.0, -92.44681506715001, 187500.0, 187500.0, 187500.0, 187500.0, 187500.0, 187500.0, 187500.0, 0.032, -0.016, 1.008, 192.0, 0.0, 0.0, 0.0, 0.0, 0.0, 0.0, 0.0, 0.0, 0.0, 1.6895994282761488E9, 0.0, 2023-07-17 15:10:28.276
193.0, -104.98614370657727, 187500.0, 187500.0, 187500.0, 187500.0, 187500.0, 187500.0, 187500.0, 0.032, -0.016, 1.008, 192.0, 0.0, 0.0, 0.0, 0.0, 0.0, 0.0, 0.0, 0.0, 0.0, 1.6895994282761936E9, 0.0, 2023-07-17 15:10:28.276
194.0, -113.79273102196825, 187500.0, 187500.0, 187500.0, 187500.0, 187500.0, 187500.0, 187500.0, 0.032, -0.016, 1.008, 192.0, 0.0, 0.0, 0.0, 0.0, 0.0, 0.0, 0.0, 0.0, 0.0, 1.6895994282762384E9, 0.0, 2023-07-17 15:10:28.276
195.0, -107.6012978078482, 187500.0, 187500.0, 187500.0, 187500.0, 187500.0, 187500.0, 187500.0, 0.032, -0.016, 1.008, 192.0, 0.0, 0.0, 0.0, 0.0, 0.0, 0.0, 0.0, 0.0, 0.0, 1.6895994282762835E9, 0.0, 2023-07-17 15:10:28.276
196.0, -94.21260287911927, 187500.0, 187500.0, 187500.0, 187500.0, 187500.0, 187500.0, 187500.0, 0.032, -0.016, 1.008, 192.0, 0.0, 0.0, 0.0, 0.0, 0.0, 0.0, 0.0, 0.0, 0.0, 1.689599428276328E9, 0.0, 2023-07-17 15:10:28.276
197.0, -92.13389064477572, 187500.0, 187500.0, 187500.0, 187500.0, 187500.0, 187500.0, 187500.0, 0.032, -0.016, 1.008, 192.0, 0.0, 0.0, 0.0, 0.0, 0.0, 0.0, 0.0, 0.0, 0.0, 1.6895994282763736E9, 0.0, 2023-07-17 15:10:28.276
198.0, -104.49440532856052, 187500.0, 187500.0, 187500.0, 187500.0, 187500.0, 187500.0, 187500.0, 0.032, -0.016, 1.008, 192.0, 0.0, 0.0, 0.0, 0.0, 0.0, 0.0, 0.0, 0.0, 0.0, 1.6895994282764187E9, 0.0, 2023-07-17 15:10:28.276
199.0, -113.23393741058558, 187500.0, 187500.0, 187500.0, 187500.0, 187500.0, 187500.0, 187500.0, 0.028, -0.016, 1.004, 192.0, 0.0, 224.0, 255.0, 128.0, 31.0, 96.0, 0.0, 0.0, 0.0, 1.6895994282764635E9, 0.0, 2023-07-17 15:10:28.276
200.0, -107.19896640765268, 187500.0, 187500.0, 187500.0, 187500.0, 187500.0, 187500.0, 187500.0, 0.028, -0.016, 1.004, 192.0, 0.0, 0.0, 0.0, 0.0, 0.0, 0.0, 0.0, 0.0, 0.0, 1.68959942827651E9, 0.0, 2023-07-17 15:10:28.276
201.0, -94.39141683476173, 187500.0, 187500.0, 187500.0, 187500.0, 187500.0, 187500.0, 187500.0, 0.028, -0.016, 1.004, 192.0, 0.0, 0.0, 0.0, 0.0, 0.0, 0.0, 0.0, 0.0, 0.0, 1.6895994282765543E9, 0.0, 2023-07-17 15:10:28.276
202.0, -92.82679472289023, 187500.0, 187500.0, 187500.0, 187500.0, 187500.0, 187500.0, 187500.0, 0.028, -0.016, 1.004, 192.0, 0.0, 0.0, 0.0, 0.0, 0.0, 0.0, 0.0, 0.0, 0.0, 1.6895994282765987E9, 0.0, 2023-07-17 15:10:28.276
203.0, -104.7849780064795, 187500.0, 187500.0, 187500.0, 187500.0, 187500.0, 187500.0, 187500.0, 0.028, -0.016, 1.004, 192.0, 0.0, 0.0, 0.0, 0.0, 0.0, 0.0, 0.0, 0.0, 0.0, 1.6895994282766993E9, 0.0, 2023-07-17 15:10:28.276
204.0, -113.59156532187049, 187500.0, 187500.0, 187500.0, 187500.0, 187500.0, 187500.0, 187500.0, 0.028, -0.016, 1.004, 192.0, 0.0, 0.0, 0.0, 0.0, 0.0, 0.0, 0.0, 0.0, 0.0, 1.6895994282767448E9, 0.0, 2023-07-17 15:10:28.276
205.0, -107.71305653012473, 187500.0, 187500.0, 187500.0, 187500.0, 187500.0, 187500.0, 187500.0, 0.028, -0.016, 1.004, 192.0, 0.0, 0.0, 0.0, 0.0, 0.0, 0.0, 0.0, 0.0, 0.0, 1.6895994282767892E9, 0.0, 2023-07-17 15:10:28.276
206.0, -93.76556799001312, 187500.0, 187500.0, 187500.0, 187500.0, 187500.0, 187500.0, 187500.0, 0.028, -0.016, 1.004, 192.0, 0.0, 0.0, 0.0, 0.0, 0.0, 0.0, 0.0, 0.0, 0.0, 1.689599428276834E9, 0.0, 2023-07-17 15:10:28.276
207.0, -91.95507668913325, 187500.0, 187500.0, 187500.0, 187500.0, 187500.0, 187500.0, 187500.0, 0.028, -0.016, 1.004, 192.0, 0.0, 0.0, 0.0, 0.0, 0.0, 0.0, 0.0, 0.0, 0.0, 1.6895994282768784E9, 0.0, 2023-07-17 15:10:28.276
208.0, -103.62268729480354, 187500.0, 187500.0, 187500.0, 187500.0, 187500.0, 187500.0, 187500.0, 0.028, -0.016, 1.004, 192.0, 0.0, 0.0, 0.0, 0.0, 0.0, 0.0, 0.0, 0.0, 0.0, 1.6895994282769227E9, 0.0, 2023-07-17 15:10:28.276
209.0, -113.3009926439515, 187500.0, 187500.0, 187500.0, 187500.0, 187500.0, 187500.0, 187500.0, 0.032, -0.012, 1.004, 192.0, 1.0, 0.0, 255.0, 160.0, 31.0, 96.0, 0.0, 0.0, 0.0, 1.6895994282769673E9, 0.0, 2023-07-17 15:10:28.276
210.0, -107.82481525240127, 187500.0, 187500.0, 187500.0, 187500.0, 187500.0, 187500.0, 187500.0, 0.032, -0.012, 1.004, 192.0, 0.0, 0.0, 0.0, 0.0, 0.0, 0.0, 0.0, 0.0, 0.0, 1.6895994282770135E9, 0.0, 2023-07-17 15:10:28.277
211.0, -94.50317555703826, 187500.0, 187500.0, 187500.0, 187500.0, 187500.0, 187500.0, 187500.0, 0.032, -0.012, 1.004, 192.0, 0.0, 0.0, 0.0, 0.0, 0.0, 0.0, 0.0, 0.0, 0.0, 1.6895994282770586E9, 0.0, 2023-07-17 15:10:28.277
212.0, -92.29035285596287, 187500.0, 187500.0, 187500.0, 187500.0, 187500.0, 187500.0, 187500.0, 0.032, -0.012, 1.004, 192.0, 0.0, 0.0, 0.0, 0.0, 0.0, 0.0, 0.0, 0.0, 0.0, 1.6895994282771285E9, 0.0, 2023-07-17 15:10:28.277
213.0, -103.91325997272253, 187500.0, 187500.0, 187500.0, 187500.0, 187500.0, 187500.0, 187500.0, 0.032, -0.012, 1.004, 192.0, 0.0, 0.0, 0.0, 0.0, 0.0, 0.0, 0.0, 0.0, 0.0, 1.689599428277174E9, 0.0, 2023-07-17 15:10:28.277
214.0, -113.36804787731742, 187500.0, 187500.0, 187500.0, 187500.0, 187500.0, 187500.0, 187500.0, 0.032, -0.012, 1.004, 192.0, 0.0, 0.0, 0.0, 0.0, 0.0, 0.0, 0.0, 0.0, 0.0, 1.6895994282772186E9, 0.0, 2023-07-17 15:10:28.277
215.0, -107.64600129675881, 187500.0, 187500.0, 187500.0, 187500.0, 187500.0, 187500.0, 187500.0, 0.032, -0.012, 1.004, 192.0, 0.0, 0.0, 0.0, 0.0, 0.0, 0.0, 0.0, 0.0, 0.0, 1.689599428277263E9, 0.0, 2023-07-17 15:10:28.277
216.0, -94.74904474604664, 187500.0, 187500.0, 187500.0, 187500.0, 187500.0, 187500.0, 187500.0, 0.032, -0.012, 1.004, 192.0, 0.0, 0.0, 0.0, 0.0, 0.0, 0.0, 0.0, 0.0, 0.0, 1.6895994282773025E9, 0.0, 2023-07-17 15:10:28.277
217.0, -92.26800111150756, 187500.0, 187500.0, 187500.0, 187500.0, 187500.0, 187500.0, 187500.0, 0.032, -0.012, 1.004, 192.0, 0.0, 0.0, 0.0, 0.0, 0.0, 0.0, 0.0, 0.0, 0.0, 1.6895994282773428E9, 0.0, 2023-07-17 15:10:28.277
218.0, -104.29323962846276, 187500.0, 187500.0, 187500.0, 187500.0, 187500.0, 187500.0, 187500.0, 0.032, -0.012, 1.004, 192.0, 0.0, 0.0, 0.0, 0.0, 0.0, 0.0, 0.0, 0.0, 0.0, 1.6895994282779684E9, 0.0, 2023-07-17 15:10:28.277
219.0, -113.12217868830905, 187500.0, 187500.0, 187500.0, 187500.0, 187500.0, 187500.0, 187500.0, 0.036000000000000004, -0.014, 1.006, 192.0, 1.0, 32.0, 255.0, 144.0, 31.0, 112.0, 0.0, 0.0, 0.0, 1.6895994282783198E9, 0.0, 2023-07-17 15:10:28.278
220.0, -107.10955942983145, 187500.0, 187500.0, 187500.0, 187500.0, 187500.0, 187500.0, 187500.0, 0.036000000000000004, -0.014, 1.006, 192.0, 0.0, 0.0, 0.0, 0.0, 0.0, 0.0, 0.0, 0.0, 0.0, 1.6895994282784336E9, 0.0, 2023-07-17 15:10:28.278
221.0, -93.40794007872822, 187500.0, 187500.0, 187500.0, 187500.0, 187500.0, 187500.0, 187500.0, 0.036000000000000004, -0.014, 1.006, 192.0, 0.0, 0.0, 0.0, 0.0, 0.0, 0.0, 0.0, 0.0, 0.0, 1.6895994282787893E9, 0.0, 2023-07-17 15:10:28.278
222.0, -92.15624238923102, 187500.0, 187500.0, 187500.0, 187500.0, 187500.0, 187500.0, 187500.0, 0.036000000000000004, -0.014, 1.006, 192.0, 0.0, 0.0, 0.0, 0.0, 0.0, 0.0, 0.0, 0.0, 0.0, 1.6895994282788467E9, 0.0, 2023-07-17 15:10:28.278
223.0, -104.20383265064153, 187500.0, 187500.0, 187500.0, 187500.0, 187500.0, 187500.0, 187500.0, 0.036000000000000004, -0.014, 1.006, 192.0, 0.0, 0.0, 0.0, 0.0, 0.0, 0.0, 0.0, 0.0, 0.0, 1.6895994282788887E9, 0.0, 2023-07-17 15:10:28.278
224.0, -113.25628915504089, 187500.0, 187500.0, 187500.0, 187500.0, 187500.0, 187500.0, 187500.0, 0.036000000000000004, -0.014, 1.006, 192.0, 0.0, 0.0, 0.0, 0.0, 0.0, 0.0, 0.0, 0.0, 0.0, 1.689599428278931E9, 0.0, 2023-07-17 15:10:28.278
225.0, -107.44483559666105, 187500.0, 187500.0, 187500.0, 187500.0, 187500.0, 187500.0, 187500.0, 0.036000000000000004, -0.014, 1.006, 192.0, 0.0, 0.0, 0.0, 0.0, 0.0, 0.0, 0.0, 0.0, 0.0, 1.6895994287395527E9, 0.0, 2023-07-17 15:10:28.739
226.0, -94.3020098569405, 187500.0, 187500.0, 187500.0, 187500.0, 187500.0, 187500.0, 187500.0, 0.036000000000000004, -0.014, 1.006, 192.0, 0.0, 0.0, 0.0, 0.0, 0.0, 0.0, 0.0, 0.0, 0.0, 1.689599428739671E9, 0.0, 2023-07-17 15:10:28.739
227.0, -92.58092553388185, 187500.0, 187500.0, 187500.0, 187500.0, 187500.0, 187500.0, 187500.0, 0.036000000000000004, -0.014, 1.006, 192.0, 0.0, 0.0, 0.0, 0.0, 0.0, 0.0, 0.0, 0.0, 0.0, 1.6895994287397218E9, 0.0, 2023-07-17 15:10:28.739
228.0, -104.20383265064153, 187500.0, 187500.0, 187500.0, 187500.0, 187500.0, 187500.0, 187500.0, 0.036000000000000004, -0.014, 1.006, 192.0, 0.0, 0.0, 0.0, 0.0, 0.0, 0.0, 0.0, 0.0, 0.0, 1.689599428739777E9, 0.0, 2023-07-17 15:10:28.739
229.0, -113.14453043276436, 187500.0, 187500.0, 187500.0, 187500.0, 187500.0, 187500.0, 187500.0, 0.032, -0.018000000000000002, 1.004, 192.0, 1.0, 0.0, 255.0, 112.0, 31.0, 96.0, 0.0, 0.0, 0.0, 1.6895994287398188E9, 0.0, 2023-07-17 15:10:28.739
230.0, -107.89187048576719, 187500.0, 187500.0, 187500.0, 187500.0, 187500.0, 187500.0, 187500.0, 0.032, -0.018000000000000002, 1.004, 192.0, 0.0, 0.0, 0.0, 0.0, 0.0, 0.0, 0.0, 0.0, 0.0, 1.6895994287398615E9, 0.0, 2023-07-17 15:10:28.739
231.0, -95.28548661297401, 187500.0, 187500.0, 187500.0, 187500.0, 187500.0, 187500.0, 187500.0, 0.032, -0.018000000000000002, 1.004, 192.0, 0.0, 0.0, 0.0, 0.0, 0.0, 0.0, 0.0, 0.0, 0.0, 1.689599428741801E9, 0.0, 2023-07-17 15:10:28.741
232.0, -92.67033251170308, 187500.0, 187500.0, 187500.0, 187500.0, 187500.0, 187500.0, 187500.0, 0.032, -0.018000000000000002, 1.004, 192.0, 0.0, 0.0, 0.0, 0.0, 0.0, 0.0, 0.0, 0.0, 0.0, 1.6895994287418911E9, 0.0, 2023-07-17 15:10:28.741
233.0, -103.68974252816946, 187500.0, 187500.0, 187500.0, 187500.0, 187500.0, 187500.0, 187500.0, 0.032, -0.018000000000000002, 1.004, 192.0, 0.0, 0.0, 0.0, 0.0, 0.0, 0.0, 0.0, 0.0, 0.0, 1.6895994287419555E9, 0.0, 2023-07-17 15:10:28.741
234.0, -113.65862055523641, 187500.0, 187500.0, 187500.0, 187500.0, 187500.0, 187500.0, 187500.0, 0.032, -0.018000000000000002, 1.004, 192.0, 0.0, 0.0, 0.0, 0.0, 0.0, 0.0, 0.0, 0.0, 0.0, 1.68959942874236E9, 0.0, 2023-07-17 15:10:28.742
235.0, -108.07068444140965, 187500.0, 187500.0, 187500.0, 187500.0, 187500.0, 187500.0, 187500.0, 0.032, -0.018000000000000002, 1.004, 192.0, 0.0, 0.0, 0.0, 0.0, 0.0, 0.0, 0.0, 0.0, 0.0, 1.6895994287424152E9, 0.0, 2023-07-17 15:10:28.742
236.0, -94.6372860237701, 187500.0, 187500.0, 187500.0, 187500.0, 187500.0, 187500.0, 187500.0, 0.032, -0.018000000000000002, 1.004, 192.0, 0.0, 0.0, 0.0, 0.0, 0.0, 0.0, 0.0, 0.0, 0.0, 1.6895994287424655E9, 0.0, 2023-07-17 15:10:28.742
237.0, -92.13389064477572, 187500.0, 187500.0, 187500.0, 187500.0, 187500.0, 187500.0, 187500.0, 0.032, -0.018000000000000002, 1.004, 192.0, 0.0, 0.0, 0.0, 0.0, 0.0, 0.0, 0.0, 0.0, 0.0, 1.689599428742515E9, 0.0, 2023-07-17 15:10:28.742
238.0, -103.86855648381191, 187500.0, 187500.0, 187500.0, 187500.0, 187500.0, 187500.0, 187500.0, 0.032, -0.018000000000000002, 1.004, 192.0, 0.0, 0.0, 0.0, 0.0, 0.0, 0.0, 0.0, 0.0, 0.0, 1.6895994287425647E9, 0.0, 2023-07-17 15:10:28.742
239.0, -113.05512345494313, 187500.0, 187500.0, 187500.0, 187500.0, 187500.0, 187500.0, 187500.0, 0.028, -0.018000000000000002, 0.996, 192.0, 0.0, 224.0, 255.0, 112.0, 31.0, 32.0, 0.0, 0.0, 0.0, 1.6895994287426143E9, 0.0, 2023-07-17 15:10:28.742
240.0, -108.11538793032027, 187500.0, 187500.0, 187500.0, 187500.0, 187500.0, 187500.0, 187500.0, 0.028, -0.018000000000000002, 0.996, 192.0, 0.0, 0.0, 0.0, 0.0, 0.0, 0.0, 0.0, 0.0, 0.0, 1.689599428742674E9, 0.0, 2023-07-17 15:10:28.742
241.0, -94.48082381258295, 187500.0, 187500.0, 187500.0, 187500.0, 187500.0, 187500.0, 187500.0, 0.028, -0.018000000000000002, 0.996, 192.0, 0.0, 0.0, 0.0, 0.0, 0.0, 0.0, 0.0, 0.0, 0.0, 1.6895994287427323E9, 0.0, 2023-07-17 15:10:28.742
242.0, -91.95507668913325, 187500.0, 187500.0, 187500.0, 187500.0, 187500.0, 187500.0, 187500.0, 0.028, -0.018000000000000002, 0.996, 192.0, 0.0, 0.0, 0.0, 0.0, 0.0, 0.0, 0.0, 0.0, 0.0, 1.6895994287427874E9, 0.0, 2023-07-17 15:10:28.742
243.0, -103.44387333916109, 187500.0, 187500.0, 187500.0, 187500.0, 187500.0, 187500.0, 187500.0, 0.028, -0.018000000000000002, 0.996, 192.0, 0.0, 0.0, 0.0, 0.0, 0.0, 0.0, 0.0, 0.0, 0.0, 1.689599428742854E9, 0.0, 2023-07-17 15:10:28.742
244.0, -112.94336473266658, 187500.0, 187500.0, 187500.0, 187500.0, 187500.0, 187500.0, 187500.0, 0.028, -0.018000000000000002, 0.996, 192.0, 0.0, 0.0, 0.0, 0.0, 0.0, 0.0, 0.0, 0.0, 0.0, 1.6895994287429087E9, 0.0, 2023-07-17 15:10:28.742
245.0, -108.24949839705211, 187500.0, 187500.0, 187500.0, 187500.0, 187500.0, 187500.0, 187500.0, 0.028, -0.018000000000000002, 0.996, 192.0, 0.0, 0.0, 0.0, 0.0, 0.0, 0.0, 0.0, 0.0, 0.0, 1.6895994287429748E9, 0.0, 2023-07-17 15:10:28.742
246.0, -94.74904474604664, 187500.0, 187500.0, 187500.0, 187500.0, 187500.0, 187500.0, 187500.0, 0.028, -0.018000000000000002, 0.996, 192.0, 0.0, 0.0, 0.0, 0.0, 0.0, 0.0, 0.0, 0.0, 0.0, 1.689599428743041E9, 0.0, 2023-07-17 15:10:28.743
247.0, -91.7986144779461, 187500.0, 187500.0, 187500.0, 187500.0, 187500.0, 187500.0, 187500.0, 0.028, -0.018000000000000002, 0.996, 192.0, 0.0, 0.0, 0.0, 0.0, 0.0, 0.0, 0.0, 0.0, 0.0, 1.6895994287430983E9, 0.0, 2023-07-17 15:10:28.743
248.0, -103.84620473935661, 187500.0, 187500.0, 187500.0, 187500.0, 187500.0, 187500.0, 187500.0, 0.028, -0.018000000000000002, 0.996, 192.0, 0.0, 0.0, 0.0, 0.0, 0.0, 0.0, 0.0, 0.0, 0.0, 1.689599428743168E9, 0.0, 2023-07-17 15:10:28.743
249.0, -113.90448974424478, 187500.0, 187500.0, 187500.0, 187500.0, 187500.0, 187500.0, 187500.0, 0.034, -0.018000000000000002, 0.998, 192.0, 1.0, 16.0, 255.0, 112.0, 31.0, 48.0, 0.0, 0.0, 0.0, 1.6895994287435672E9, 0.0, 2023-07-17 15:10:28.743
250.0, -107.82481525240127, 187500.0, 187500.0, 187500.0, 187500.0, 187500.0, 187500.0, 187500.0, 0.034, -0.018000000000000002, 0.998, 192.0, 0.0, 0.0, 0.0, 0.0, 0.0, 0.0, 0.0, 0.0, 0.0, 1.689599428743693E9, 0.0, 2023-07-17 15:10:28.743
251.0, -94.50317555703826, 187500.0, 187500.0, 187500.0, 187500.0, 187500.0, 187500.0, 187500.0, 0.034, -0.018000000000000002, 0.998, 192.0, 0.0, 0.0, 0.0, 0.0, 0.0, 0.0, 0.0, 0.0, 0.0, 1.6895994287438111E9, 0.0, 2023-07-17 15:10:28.743
252.0, -91.91037320022264, 187500.0, 187500.0, 187500.0, 187500.0, 187500.0, 187500.0, 187500.0, 0.034, -0.018000000000000002, 0.998, 192.0, 0.0, 0.0, 0.0, 0.0, 0.0, 0.0, 0.0, 0.0, 0.0, 1.689599428743914E9, 0.0, 2023-07-17 15:10:28.743
253.0, -103.28741112797394, 187500.0, 187500.0, 187500.0, 187500.0, 187500.0, 187500.0, 187500.0, 0.034, -0.018000000000000002, 0.998, 192.0, 0.0, 0.0, 0.0, 0.0, 0.0, 0.0, 0.0, 0.0, 0.0, 1.6895994287440271E9, 0.0, 2023-07-17 15:10:28.744
254.0, -113.03277171048782, 187500.0, 187500.0, 187500.0, 187500.0, 187500.0, 187500.0, 187500.0, 0.034, -0.018000000000000002, 0.998, 192.0, 0.0, 0.0, 0.0, 0.0, 0.0, 0.0, 0.0, 0.0, 0.0, 1.689599428744128E9, 0.0, 2023-07-17 15:10:28.744
255.0, -108.11538793032027, 187500.0, 187500.0, 187500.0, 187500.0, 187500.0, 187500.0, 187500.0, 0.034, -0.018000000000000002, 0.998, 192.0, 0.0, 0.0, 0.0, 0.0, 0.0, 0.0, 0.0, 0.0, 0.0, 1.689599428744239E9, 0.0, 2023-07-17 15:10:28.744
0.0, -94.48082381258295, 187500.0, 187500.0, 187500.0, 187500.0, 187500.0, 187500.0, 187500.0, 0.034, -0.018000000000000002, 0.998, 192.0, 0.0, 0.0, 0.0, 0.0, 0.0, 0.0, 0.0, 0.0, 0.0, 1.689599428744314E9, 0.0, 2023-07-17 15:10:28.744
1.0, -92.24564936705225, 187500.0, 187500.0, 187500.0, 187500.0, 187500.0, 187500.0, 187500.0, 0.034, -0.018000000000000002, 0.998, 192.0, 0.0, 0.0, 0.0, 0.0, 0.0, 0.0, 0.0, 0.0, 0.0, 1.6895994287444277E9, 0.0, 2023-07-17 15:10:28.744
2.0, -103.08624542787618, 187500.0, 187500.0, 187500.0, 187500.0, 187500.0, 187500.0, 187500.0, 0.034, -0.018000000000000002, 0.998, 192.0, 0.0, 0.0, 0.0, 0.0, 0.0, 0.0, 0.0, 0.0, 0.0, 1.689599428744487E9, 0.0, 2023-07-17 15:10:28.744
3.0, -113.14453043276436, 187500.0, 187500.0, 187500.0, 187500.0, 187500.0, 187500.0, 187500.0, 0.03, -0.018000000000000002, 1.006, 192.0, 0.0, 240.0, 255.0, 112.0, 31.0, 112.0, 0.0, 0.0, 0.0, 1.6895994287445457E9, 0.0, 2023-07-17 15:10:28.744
4.0, -108.11538793032027, 187500.0, 187500.0, 187500.0, 187500.0, 187500.0, 187500.0, 187500.0, 0.03, -0.018000000000000002, 1.006, 192.0, 0.0, 0.0, 0.0, 0.0, 0.0, 0.0, 0.0, 0.0, 0.0, 1.6895994287446165E9, 0.0, 2023-07-17 15:10:28.744
5.0, -94.90550695723378, 187500.0, 187500.0, 187500.0, 187500.0, 187500.0, 187500.0, 187500.0, 0.03, -0.018000000000000002, 1.006, 192.0, 0.0, 0.0, 0.0, 0.0, 0.0, 0.0, 0.0, 0.0, 0.0, 1.6895994287446773E9, 0.0, 2023-07-17 15:10:28.744
6.0, -92.04448366695448, 187500.0, 187500.0, 187500.0, 187500.0, 187500.0, 187500.0, 187500.0, 0.03, -0.018000000000000002, 1.006, 192.0, 0.0, 0.0, 0.0, 0.0, 0.0, 0.0, 0.0, 0.0, 0.0, 1.6895994287447648E9, 0.0, 2023-07-17 15:10:28.744
7.0, -102.50510007203819, 187500.0, 187500.0, 187500.0, 187500.0, 187500.0, 187500.0, 187500.0, 0.03, -0.018000000000000002, 1.006, 192.0, 0.0, 0.0, 0.0, 0.0, 0.0, 0.0, 0.0, 0.0, 0.0, 1.689599428744846E9, 0.0, 2023-07-17 15:10:28.744
8.0, -112.51868158801575, 187500.0, 187500.0, 187500.0, 187500.0, 187500.0, 187500.0, 187500.0, 0.03, -0.018000000000000002, 1.006, 192.0, 0.0, 0.0, 0.0, 0.0, 0.0, 0.0, 0.0, 0.0, 0.0, 1.6895994287449276E9, 0.0, 2023-07-17 15:10:28.744
9.0, -107.89187048576719, 187500.0, 187500.0, 187500.0, 187500.0, 187500.0, 187500.0, 187500.0, 0.03, -0.018000000000000002, 1.006, 192.0, 0.0, 0.0, 0.0, 0.0, 0.0, 0.0, 0.0, 0.0, 0.0, 1.6895994287455568E9, 0.0, 2023-07-17 15:10:28.745
10.0, -94.79374823495725, 187500.0, 187500.0, 187500.0, 187500.0, 187500.0, 187500.0, 187500.0, 0.03, -0.018000000000000002, 1.006, 192.0, 0.0, 0.0, 0.0, 0.0, 0.0, 0.0, 0.0, 0.0, 0.0, 1.6895994287456293E9, 0.0, 2023-07-17 15:10:28.745
11.0, -92.26800111150756, 187500.0, 187500.0, 187500.0, 187500.0, 187500.0, 187500.0, 187500.0, 0.03, -0.018000000000000002, 1.006, 192.0, 0.0, 0.0, 0.0, 0.0, 0.0, 0.0, 0.0, 0.0, 0.0, 1.6895994287456815E9, 0.0, 2023-07-17 15:10:28.745
